Database of Origin,University of Winnipeg Spectrophotometer Facility
Sample Description,8. Sulfates - Jim Crowley (USGS) IR spectra /  Crowley IR spectra
Date Added,2018-05-29 16:56:43.425582

Data ID,CWL_SUL_22          
Sample ID,Gypsum
Mineral Name,Gypsum
Locality,"Baja California, Mexico"
Grain Size,~250
Viewing Geometry,unknown
Resolution,0.08-40
Material Class,Sulfate

Wavelength
2083.55,0.6981
2084.39,0.6956
2085.23,0.6951
2086.06,0.6955
2086.9,0.7014
2087.74,0.7047
2088.58,0.7053
2089.43,0.7059
2090.27,0.7074
2091.11,0.7094
2091.95,0.7105
2092.8,0.7079
2093.64,0.7062
2094.49,0.7067
2095.33,0.7097
2096.18,0.7154
2097.03,0.7171
2097.88,0.7123
2098.73,0.7099
2099.58,0.7095
2100.43,0.7135
2101.28,0.7169
2102.13,0.7191
2102.98,0.7178
2103.83,0.7191
2104.69,0.724
2105.54,0.7276
2106.4,0.7244
2107.25,0.7208
2108.11,0.7203
2108.97,0.7248
2109.83,0.7283
2110.68,0.728
2111.54,0.7289
2112.4,0.7294
2113.27,0.7305
2114.13,0.732
2114.99,0.7306
2115.85,0.7325
2116.72,0.7309
2117.58,0.7303
2118.44,0.7346
2119.31,0.7381
2120.18,0.74
2121.04,0.7428
2121.91,0.7445
2122.78,0.743
2123.65,0.742
2124.52,0.746
2125.39,0.7471
2126.26,0.7465
2127.13,0.747
2128.01,0.7465
2128.88,0.7463
2129.75,0.7485
2130.63,0.7502
2131.5,0.7505
2132.38,0.7486
2133.26,0.7512
2134.14,0.7571
2135.01,0.7558
2135.89,0.7496
2136.77,0.753
2137.65,0.7568
2138.54,0.7566
2139.42,0.7564
2140.3,0.7546
2141.18,0.7524
2142.07,0.7547
2142.95,0.7561
2143.84,0.7578
2144.73,0.7569
2145.61,0.7575
2146.5,0.7593
2147.39,0.7602
2148.28,0.762
2149.17,0.7653
2150.06,0.7639
2150.95,0.764
2151.85,0.7694
2152.74,0.7714
2153.63,0.7677
2154.53,0.7649
2155.42,0.7665
2156.32,0.7684
2157.22,0.7706
2158.11,0.7735
2159.01,0.7743
2159.91,0.7759
2160.81,0.7752
2161.71,0.7748
2162.61,0.7766
2163.52,0.78
2164.42,0.7787
2165.32,0.7748
2166.23,0.7736
2167.13,0.7778
2168.04,0.7818
2168.94,0.7835
2169.85,0.7828
2170.76,0.7821
2171.67,0.7826
2172.58,0.7831
2173.49,0.7823
2174.4,0.7835
2175.31,0.7836
2176.23,0.786
2177.14,0.7884
2178.05,0.7908
2178.97,0.7906
2179.89,0.7882
2180.8,0.7882
2181.72,0.7887
2182.64,0.7871
2183.56,0.785
2184.48,0.7861
2185.4,0.7862
2186.32,0.7877
2187.24,0.7912
2188.16,0.79
2189.09,0.7911
2190.01,0.7909
2190.94,0.7911
2191.86,0.7899
2192.79,0.7907
2193.72,0.7901
2194.64,0.7894
2195.57,0.7919
2196.5,0.7941
2197.43,0.7945
2198.37,0.7966
2199.3,0.799
2200.23,0.7997
2201.16,0.7976
2202.1,0.798
2203.03,0.8009
2203.97,0.8007
2204.91,0.8012
2205.85,0.8039
2206.78,0.8027
2207.72,0.8033
2208.66,0.8034
2209.61,0.8046
2210.55,0.8081
2211.49,0.8095
2212.43,0.8103
2213.38,0.8111
2214.32,0.8093
2215.27,0.8077
2216.21,0.8104
2217.16,0.8139
2218.11,0.813
2219.06,0.8123
2220.01,0.8114
2220.96,0.8131
2221.91,0.8115
2222.86,0.8094
2223.82,0.8069
2224.77,0.8053
2225.73,0.804
2226.68,0.8033
2227.64,0.8018
2228.6,0.8015
2229.55,0.7996
2230.51,0.7953
2231.47,0.7936
2232.43,0.7934
2233.39,0.7909
2234.36,0.7887
2235.32,0.7886
2236.28,0.7891
2237.25,0.7887
2238.21,0.7891
2239.18,0.7892
2240.15,0.7888
2241.12,0.786
2242.08,0.7855
2243.05,0.786
2244.02,0.7879
2245.0,0.79
2245.97,0.7904
2246.94,0.7884
2247.91,0.7868
2248.89,0.7871
2249.87,0.7885
2250.84,0.7885
2251.82,0.7898
2252.8,0.7898
2253.78,0.7909
2254.76,0.7904
2255.74,0.791
2256.72,0.7917
2257.7,0.7938
2258.68,0.7935
2259.67,0.794
2260.65,0.7951
2261.64,0.7966
2262.63,0.7965
2263.61,0.7969
2264.6,0.7977
2265.59,0.7989
2266.58,0.7989
2267.57,0.8
2268.56,0.802
2269.56,0.8015
2270.55,0.7989
2271.55,0.798
2272.54,0.7971
2273.54,0.7973
2274.53,0.7957
2275.53,0.7947
2276.53,0.7922
2277.53,0.7891
2278.53,0.7867
2279.53,0.7852
2280.54,0.7868
2281.54,0.7867
2282.54,0.7823
2283.55,0.78
2284.55,0.7792
2285.56,0.7787
2286.57,0.7769
2287.58,0.7777
2288.59,0.7798
2289.6,0.7795
2290.61,0.7751
2291.62,0.7743
2292.63,0.774
2293.65,0.7754
2294.66,0.7762
2295.68,0.7741
2296.69,0.7735
2297.71,0.774
2298.73,0.7734
2299.75,0.7738
2300.77,0.7739
2301.79,0.7727
2302.81,0.772
2303.84,0.7708
2304.86,0.7691
2305.88,0.7703
2306.91,0.7735
2307.94,0.7735
2308.96,0.7676
2309.99,0.7672
2311.02,0.7695
2312.05,0.7715
2313.08,0.7717
2314.12,0.7711
2315.15,0.7726
2316.18,0.773
2317.22,0.771
2318.25,0.7707
2319.29,0.77
2320.33,0.7708
2321.37,0.7703
2322.41,0.7738
2323.45,0.7746
2324.49,0.775
2325.53,0.7751
2326.57,0.7742
2327.62,0.7731
2328.66,0.7761
2329.71,0.7776
2330.76,0.7751
2331.8,0.7763
2332.85,0.7791
2333.9,0.7794
2334.95,0.7797
2336.01,0.7785
2337.06,0.7795
2338.11,0.7812
2339.17,0.7811
2340.22,0.7811
2341.28,0.7851
2342.34,0.7857
2343.39,0.7876
2344.45,0.7884
2345.51,0.7902
2346.57,0.7893
2347.64,0.7877
2348.7,0.7898
2349.76,0.7932
2350.83,0.7952
2351.9,0.7959
2352.96,0.7956
2354.03,0.7981
2355.1,0.7985
2356.17,0.7999
2357.24,0.8031
2358.31,0.8051
2359.39,0.805
2360.46,0.8047
2361.53,0.8071
2362.61,0.8095
2363.69,0.8108
2364.76,0.8111
2365.84,0.8135
2366.92,0.8175
2368.0,0.8182
2369.09,0.8196
2370.17,0.8219
2371.25,0.8239
2372.34,0.8255
2373.42,0.8268
2374.51,0.8267
2375.6,0.8306
2376.69,0.8343
2377.78,0.8358
2378.87,0.8369
2379.96,0.8397
2381.05,0.8406
2382.14,0.842
2383.24,0.8439
2384.33,0.8468
2385.43,0.8497
2386.53,0.8518
2387.63,0.8533
2388.73,0.8532
2389.83,0.8545
2390.93,0.8589
2392.03,0.8608
2393.14,0.8633
2394.24,0.8654
2395.35,0.8668
2396.45,0.8672
2397.56,0.8694
2398.67,0.8728
2399.78,0.8738
2400.89,0.8748
2402.0,0.8775
2403.12,0.8799
2404.23,0.881
2405.35,0.8823
2406.46,0.8814
2407.58,0.8817
2408.7,0.887
2409.82,0.8902
2410.94,0.891
2412.06,0.8905
2413.18,0.8911
2414.3,0.8923
2415.43,0.8926
2416.55,0.8929
2417.68,0.8956
2418.81,0.8964
2419.94,0.8969
2421.07,0.897
2422.2,0.8955
2423.33,0.897
2424.46,0.8988
2425.6,0.8977
2426.73,0.8976
2427.87,0.9003
2429.0,0.9034
2430.14,0.9012
2431.28,0.8994
2432.42,0.9003
2433.56,0.9012
2434.71,0.9009
2435.85,0.9038
2436.99,0.9053
2438.14,0.9056
2439.29,0.9033
2440.43,0.9034
2441.58,0.904
2442.73,0.9065
2443.88,0.9072
2445.04,0.907
2446.19,0.907
2447.34,0.906
2448.5,0.9067
2449.66,0.9062
2450.81,0.9056
2451.97,0.9062
2453.13,0.9063
2454.29,0.9074
2455.45,0.9091
2456.62,0.9096
2457.78,0.9077
2458.95,0.9098
2460.11,0.9103
2461.28,0.9104
2462.45,0.9105
2463.62,0.9116
2464.79,0.9128
2465.96,0.9133
2467.14,0.9124
2468.31,0.9142
2469.49,0.9146
2470.66,0.915
2471.84,0.9148
2473.02,0.9137
2474.2,0.9134
2475.38,0.9157
2476.56,0.9171
2477.74,0.9164
2478.93,0.9153
2480.11,0.9136
2481.3,0.913
2482.49,0.9158
2483.68,0.9181
2484.87,0.9191
2486.06,0.9171
2487.25,0.9166
2488.44,0.9178
2489.64,0.9166
2490.83,0.915
2492.03,0.9146
2493.23,0.9173
2494.43,0.9185
2495.63,0.9158
2496.83,0.914
2498.03,0.9146
2499.24,0.9167
2500.44,0.9159
2501.65,0.9143
2502.86,0.9126
2504.06,0.9135
2505.27,0.9123
2506.48,0.9118
2507.7,0.9137
2508.91,0.9151
2510.12,0.916
2511.34,0.9147
2512.56,0.9116
2513.77,0.9109
2514.99,0.9122
2516.21,0.9123
2517.43,0.9114
2518.66,0.9124
2519.88,0.9101
2521.11,0.9089
2522.33,0.9092
2523.56,0.9102
2524.79,0.9095
2526.02,0.9079
2527.25,0.908
2528.48,0.9109
2529.71,0.9122
2530.95,0.9114
2532.18,0.9099
2533.42,0.9094
2534.66,0.9075
2535.9,0.9081
2537.14,0.91
2538.38,0.9108
2539.62,0.9098
2540.87,0.9091
2542.11,0.9085
2543.36,0.9092
2544.61,0.9108
2545.86,0.9119
2547.11,0.911
2548.36,0.9102
2549.61,0.9091
2550.87,0.9107
2552.12,0.9101
2553.38,0.9087
2554.64,0.9108
2555.89,0.9125
2557.16,0.9128
2558.42,0.9136
2559.68,0.9135
2560.94,0.9126
2562.21,0.9131
2563.48,0.9142
2564.74,0.9134
2566.01,0.913
2567.28,0.9134
2568.55,0.9137
2569.83,0.9138
2571.1,0.9142
2572.38,0.9145
2573.65,0.9137
2574.93,0.9116
2576.21,0.9119
2577.49,0.9132
2578.77,0.9134
2580.05,0.9125
2581.34,0.9131
2582.62,0.9129
2583.91,0.9129
2585.2,0.9123
2586.49,0.9131
2587.78,0.9143
2589.07,0.9154
2590.36,0.915
2591.66,0.9148
2592.95,0.9141
2594.25,0.9142
2595.55,0.9126
2596.85,0.9125
2598.15,0.9134
2599.45,0.9149
2600.76,0.9148
2602.06,0.9141
2603.37,0.9145
2604.67,0.916
2605.98,0.9152
2607.29,0.9148
2608.6,0.9132
2609.92,0.9141
2611.23,0.9162
2612.55,0.9166
2613.86,0.9149
2615.18,0.9146
2616.5,0.9155
2617.82,0.9166
2619.14,0.9171
2620.47,0.916
2621.79,0.9155
2623.12,0.9174
2624.45,0.9178
2625.77,0.9179
2627.1,0.9194
2628.44,0.9194
2629.77,0.9173
2631.1,0.9175
2632.44,0.9178
2633.78,0.9185
2635.11,0.9194
2636.45,0.919
2637.79,0.9187
2639.14,0.9212
2640.48,0.9222
2641.83,0.9238
2643.17,0.9233
2644.52,0.9227
2645.87,0.923
2647.22,0.9249
2648.57,0.9237
2649.92,0.9224
2651.28,0.9221
2652.64,0.9239
2653.99,0.9255
2655.35,0.9261
2656.71,0.9273
2658.07,0.9291
2659.44,0.9296
2660.8,0.9301
2662.17,0.9316
2663.53,0.9328
2664.9,0.9329
2666.27,0.9339
2667.64,0.9329
2669.02,0.9331
2670.39,0.9338
2671.77,0.9347
2673.14,0.9363
2674.52,0.9369
2675.9,0.9362
2677.28,0.9371
2678.67,0.9376
2680.05,0.9396
2681.44,0.9408
2682.82,0.9399
2684.21,0.9401
2685.6,0.9415
2686.99,0.9398
2688.39,0.9399
2689.78,0.9421
2691.18,0.9438
2692.57,0.9456
2693.97,0.9471
2695.37,0.9473
2696.77,0.9473
2698.18,0.9472
2699.58,0.9497
2700.99,0.9505
2702.4,0.9514
2703.8,0.9519
2705.22,0.9518
2706.63,0.9519
2708.04,0.951
2709.45,0.9518
2710.87,0.9547
2712.29,0.9548
2713.71,0.9559
2715.13,0.9564
2716.55,0.9567
2717.97,0.957
2719.4,0.9583
2720.83,0.9589
2722.25,0.9596
2723.68,0.9601
2725.12,0.9607
2726.55,0.9613
2727.98,0.962
2729.42,0.9617
2730.86,0.9615
2732.29,0.9615
2733.73,0.9629
2735.18,0.9633
2736.62,0.9649
2738.06,0.9655
2739.51,0.9666
2740.96,0.968
2742.41,0.9697
2743.86,0.969
2745.31,0.968
2746.77,0.9687
2748.22,0.9691
2749.68,0.9691
2751.14,0.9707
2752.6,0.9704
2754.06,0.9706
2755.52,0.9729
2756.99,0.9738
2758.45,0.9727
2759.92,0.9726
2761.39,0.9729
2762.86,0.9734
2764.33,0.9734
2765.81,0.9749
2767.28,0.9754
2768.76,0.9739
2770.24,0.9729
2771.72,0.9732
2773.2,0.973
2774.69,0.9744
2776.17,0.9745
2777.66,0.9764
2779.15,0.9772
2780.64,0.9767
2782.13,0.9757
2783.62,0.9756
2785.12,0.9759
2786.61,0.9758
2788.11,0.9762
2789.61,0.9774
2791.11,0.9765
2792.62,0.9778
2794.12,0.9782
2795.63,0.9766
2797.14,0.9752
2798.64,0.9769
2800.16,0.9771
2801.67,0.9753
2803.18,0.9746
2804.7,0.9746
2806.22,0.9736
2807.74,0.9745
2809.26,0.976
2810.78,0.9761
2812.3,0.9751
2813.83,0.9743
2815.36,0.974
2816.89,0.9752
2818.42,0.9744
2819.95,0.973
2821.48,0.9732
2823.02,0.9744
2824.56,0.9738
2826.1,0.9726
2827.64,0.9731
2829.18,0.9747
2830.72,0.9748
2832.27,0.9758
2833.82,0.9768
2835.37,0.9771
2836.92,0.9759
2838.47,0.9757
2840.02,0.976
2841.58,0.9776
2843.14,0.9782
2844.7,0.9792
2846.26,0.9795
2847.82,0.9786
2849.39,0.9773
2850.95,0.9777
2852.52,0.9789
2854.09,0.9795
2855.66,0.9789
2857.24,0.979
2858.81,0.9791
2860.39,0.9794
2861.97,0.9799
2863.55,0.9805
2865.13,0.9791
2866.71,0.9777
2868.3,0.977
2869.88,0.9786
2871.47,0.979
2873.06,0.9792
2874.66,0.979
2876.25,0.9776
2877.85,0.9774
2879.45,0.9791
2881.04,0.9785
2882.65,0.9767
2884.25,0.9767
2885.85,0.9776
2887.46,0.9776
2889.07,0.9778
2890.68,0.9776
2892.29,0.9775
2893.91,0.977
2895.52,0.9769
2897.14,0.9762
2898.76,0.9757
2900.38,0.9736
2902.0,0.9727
2903.63,0.9714
2905.25,0.9704
2906.88,0.9689
2908.51,0.9679
2910.14,0.9655
2911.78,0.9624
2913.41,0.9605
2915.05,0.9596
2916.69,0.9563
2918.33,0.9539
2919.98,0.9519
2921.62,0.9502
2923.27,0.9488
2924.92,0.9472
2926.57,0.9434
2928.22,0.9416
2929.87,0.9402
2931.53,0.9404
2933.19,0.9415
2934.85,0.9424
2936.51,0.9415
2938.17,0.9415
2939.84,0.943
2941.51,0.9451
2943.18,0.9461
2944.85,0.9473
2946.52,0.9482
2948.19,0.9499
2949.87,0.9506
2951.55,0.9516
2953.23,0.9529
2954.91,0.9536
2956.6,0.9532
2958.28,0.9536
2959.97,0.9553
2961.66,0.957
2963.36,0.9567
2965.05,0.9569
2966.75,0.9576
2968.44,0.9589
2970.14,0.9593
2971.85,0.9596
2973.55,0.9593
2975.26,0.9599
2976.96,0.9595
2978.67,0.9608
2980.39,0.9615
2982.1,0.9608
2983.82,0.9612
2985.53,0.9616
2987.25,0.9614
2988.97,0.9617
2990.7,0.9616
2992.42,0.962
2994.15,0.9621
2995.88,0.9606
2997.61,0.9597
2999.35,0.9611
3001.08,0.9629
3002.82,0.9635
3004.56,0.9625
3006.3,0.9622
3008.04,0.9626
3009.79,0.9622
3011.54,0.9618
3013.29,0.9616
3015.04,0.9605
3016.79,0.9609
3018.55,0.9611
3020.31,0.9618
3022.07,0.9623
3023.83,0.9623
3025.59,0.9618
3027.36,0.9613
3029.13,0.9612
3030.9,0.9613
3032.67,0.9606
3034.44,0.9611
3036.22,0.9624
3038.0,0.9629
3039.78,0.9607
3041.56,0.9606
3043.35,0.9618
3045.14,0.9621
3046.92,0.9616
3048.72,0.9615
3050.51,0.9618
3052.3,0.962
3054.1,0.9606
3055.9,0.9601
3057.7,0.9603
3059.51,0.9609
3061.31,0.9612
3063.12,0.9615
3064.93,0.961
3066.74,0.9601
3068.56,0.9607
3070.37,0.9626
3072.19,0.9621
3074.01,0.9607
3075.84,0.9607
3077.66,0.9613
3079.49,0.9607
3081.32,0.9602
3083.15,0.9601
3084.99,0.9595
3086.82,0.9592
3088.66,0.9595
3090.5,0.9581
3092.34,0.9583
3094.19,0.9579
3096.04,0.9571
3097.89,0.9568
3099.74,0.9575
3101.59,0.9571
3103.45,0.956
3105.31,0.9558
3107.17,0.9572
3109.03,0.9575
3110.89,0.957
3112.76,0.9566
3114.63,0.9565
3116.5,0.956
3118.38,0.9561
3120.25,0.9548
3122.13,0.9543
3124.01,0.9545
3125.89,0.9545
3127.78,0.9533
3129.67,0.9539
3131.56,0.9539
3133.45,0.9543
3135.34,0.9551
3137.24,0.9551
3139.14,0.9539
3141.04,0.9532
3142.94,0.9526
3144.85,0.9521
3146.76,0.951
3148.67,0.9511
3150.58,0.9511
3152.5,0.9511
3154.41,0.9502
3156.33,0.9499
3158.25,0.9493
3160.18,0.9483
3162.11,0.948
3164.04,0.9488
3165.97,0.9478
3167.9,0.9477
3169.84,0.948
3171.78,0.9477
3173.72,0.9466
3175.66,0.9461
3177.61,0.9458
3179.55,0.9459
3181.5,0.9455
3183.46,0.9453
3185.41,0.9449
3187.37,0.9446
3189.33,0.9436
3191.29,0.9431
3193.26,0.9424
3195.23,0.9424
3197.2,0.943
3199.17,0.9427
3201.14,0.9413
3203.12,0.942
3205.1,0.9422
3207.08,0.9419
3209.07,0.9413
3211.05,0.9409
3213.04,0.9408
3215.03,0.941
3217.03,0.9404
3219.03,0.9395
3221.02,0.9388
3223.03,0.9388
3225.03,0.9389
3227.04,0.9384
3229.05,0.9371
3231.06,0.937
3233.07,0.9373
3235.09,0.9373
3237.11,0.9364
3239.13,0.9357
3241.15,0.9358
3243.18,0.9362
3245.21,0.9363
3247.24,0.9365
3249.28,0.9356
3251.31,0.9349
3253.35,0.9345
3255.4,0.9346
3257.44,0.9335
3259.49,0.9333
3261.54,0.933
3263.59,0.9323
3265.65,0.9318
3267.7,0.9319
3269.76,0.9318
3271.83,0.9314
3273.89,0.9312
3275.96,0.9311
3278.03,0.9302
3280.1,0.9293
3282.18,0.9288
3284.26,0.928
3286.34,0.927
3288.42,0.9269
3290.51,0.9266
3292.6,0.9264
3294.69,0.9265
3296.78,0.9267
3298.88,0.9253
3300.98,0.9244
3303.08,0.9239
3305.19,0.9235
3307.3,0.9233
3309.41,0.9229
3311.52,0.9217
3313.64,0.9209
3315.75,0.9197
3317.88,0.9194
3320.0,0.9192
3322.13,0.9193
3324.26,0.9186
3326.39,0.9181
3328.52,0.9179
3330.66,0.9168
3332.8,0.9159
3334.94,0.9157
3337.09,0.915
3339.24,0.9149
3341.39,0.9147
3343.54,0.9141
3345.7,0.9137
3347.86,0.913
3350.02,0.9119
3352.19,0.9115
3354.36,0.9114
3356.53,0.911
3358.7,0.9108
3360.88,0.9107
3363.06,0.91
3365.24,0.9098
3367.43,0.9086
3369.61,0.9074
3371.8,0.9066
3374.0,0.9063
3376.19,0.9059
3378.39,0.9054
3380.6,0.9052
3382.8,0.9043
3385.01,0.9026
3387.22,0.902
3389.43,0.902
3391.65,0.9022
3393.87,0.9017
3396.09,0.9008
3398.32,0.8996
3400.55,0.8991
3402.78,0.8984
3405.01,0.898
3407.25,0.8974
3409.49,0.8972
3411.73,0.897
3413.98,0.8955
3416.23,0.8943
3418.48,0.8943
3420.73,0.8937
3422.99,0.8933
3425.25,0.8919
3427.51,0.8911
3429.78,0.8914
3432.05,0.8914
3434.32,0.8903
3436.6,0.8898
3438.88,0.8903
3441.16,0.8906
3443.45,0.8893
3445.73,0.8881
3448.02,0.8876
3450.32,0.8874
3452.61,0.8873
3454.91,0.8875
3457.22,0.8865
3459.52,0.8859
3461.83,0.8848
3464.15,0.8836
3466.46,0.8834
3468.78,0.8836
3471.1,0.8827
3473.43,0.8821
3475.75,0.8816
3478.09,0.8818
3480.42,0.8816
3482.76,0.8803
3485.1,0.8784
3487.44,0.8785
3489.79,0.8782
3492.14,0.877
3494.49,0.8768
3496.85,0.8768
3499.21,0.8753
3501.57,0.874
3503.93,0.8735
3506.3,0.8732
3508.68,0.8721
3511.05,0.8713
3513.43,0.8711
3515.81,0.8704
3518.2,0.8702
3520.58,0.8701
3522.98,0.8701
3525.37,0.8702
3527.77,0.8698
3530.17,0.8695
3532.57,0.8689
3534.98,0.868
3537.39,0.8678
3539.81,0.8677
3542.23,0.8667
3544.65,0.8664
3547.07,0.8665
3549.5,0.8661
3551.93,0.8655
3554.36,0.8653
3556.8,0.8645
3559.24,0.8645
3561.69,0.8634
3564.14,0.8622
3566.59,0.862
3569.04,0.8624
3571.5,0.8615
3573.96,0.8604
3576.42,0.8594
3578.89,0.8595
3581.36,0.8591
3583.84,0.8582
3586.32,0.857
3588.8,0.8565
3591.28,0.8562
3593.77,0.8554
3596.26,0.854
3598.76,0.8527
3601.26,0.8517
3603.76,0.8511
3606.27,0.8506
3608.78,0.8497
3611.29,0.8489
3613.81,0.8484
3616.33,0.8466
3618.85,0.8455
3621.38,0.8452
3623.91,0.8451
3626.44,0.8448
3628.98,0.8436
3631.52,0.8425
3634.06,0.8421
3636.61,0.8409
3639.16,0.8398
3641.72,0.8389
3644.28,0.8385
3646.84,0.8384
3649.41,0.8375
3651.98,0.8366
3654.55,0.8362
3657.13,0.8347
3659.71,0.8338
3662.29,0.8339
3664.88,0.8338
3667.47,0.8325
3670.07,0.832
3672.67,0.8312
3675.27,0.8307
3677.88,0.8303
3680.49,0.8304
3683.1,0.8302
3685.72,0.8291
3688.34,0.8281
3690.96,0.8285
3693.59,0.8287
3696.23,0.828
3698.86,0.8272
3701.5,0.8265
3704.15,0.826
3706.79,0.826
3709.44,0.826
3712.1,0.8264
3714.76,0.826
3717.42,0.8257
3720.09,0.8265
3722.76,0.8268
3725.43,0.8261
3728.11,0.8256
3730.79,0.8253
3733.48,0.8253
3736.17,0.8246
3738.86,0.8246
3741.56,0.8243
3744.26,0.8239
3746.97,0.8236
3749.67,0.8244
3752.39,0.8246
3755.1,0.8245
3757.83,0.8236
3760.55,0.8233
3763.28,0.8237
3766.01,0.8236
3768.75,0.8234
3771.49,0.8241
3774.23,0.8246
3776.98,0.8247
3779.74,0.8243
3782.49,0.8247
3785.25,0.826
3788.02,0.8261
3790.79,0.8256
3793.56,0.826
3796.34,0.8256
3799.12,0.8255
3801.9,0.8251
3804.69,0.8253
3807.48,0.8257
3810.28,0.8256
3813.08,0.8254
3815.89,0.8255
3818.7,0.8243
3821.51,0.8242
3824.33,0.8253
3827.15,0.8259
3829.98,0.8258
3832.81,0.8258
3835.64,0.8257
3838.48,0.8261
3841.33,0.8262
3844.17,0.8267
3847.03,0.8275
3849.88,0.8287
3852.74,0.8298
3855.61,0.8316
3858.47,0.8333
3861.35,0.8356
3864.22,0.838
3867.11,0.8413
3869.99,0.8439
3872.88,0.8443
3875.78,0.8428
3878.67,0.8408
3881.58,0.8385
3884.48,0.8369
3887.4,0.8361
3890.31,0.8364
3893.23,0.8367
3896.16,0.8365
3899.09,0.8362
3902.02,0.837
3904.96,0.8381
3907.9,0.8393
3910.85,0.8405
3913.8,0.8418
3916.76,0.8423
3919.72,0.8434
3922.68,0.8446
3925.65,0.8456
3928.62,0.8464
3931.6,0.8474
3934.58,0.8487
3937.57,0.8497
3940.56,0.8512
3943.56,0.8527
3946.56,0.8539
3949.57,0.855
3952.58,0.856
3955.59,0.858
3958.61,0.8608
3961.63,0.8632
3964.66,0.8655
3967.7,0.8676
3970.73,0.8686
3973.78,0.8691
3976.82,0.868
3979.88,0.8662
3982.93,0.8649
3985.99,0.8639
3989.06,0.863
3992.13,0.8632
3995.21,0.8637
3998.29,0.8636
4001.37,0.8636
4004.46,0.864
4007.55,0.8644
4010.65,0.8654
4013.76,0.8666
4016.87,0.8672
4019.98,0.8679
4023.1,0.8689
4026.22,0.8695
4029.35,0.8705
4032.48,0.871
4035.62,0.8724
4038.76,0.8737
4041.91,0.8747
4045.06,0.876
4048.22,0.8767
4051.38,0.878
4054.55,0.8796
4057.72,0.8807
4060.9,0.8813
4064.08,0.8819
4067.27,0.883
4070.46,0.8837
4073.66,0.8846
4076.86,0.8859
4080.07,0.8875
4083.28,0.8891
4086.5,0.8899
4089.72,0.8902
4092.95,0.891
4096.18,0.8921
4099.42,0.8935
4102.66,0.8943
4105.91,0.8951
4109.16,0.8963
4112.42,0.8979
4115.69,0.8991
4118.96,0.9002
4122.23,0.9005
4125.51,0.9006
4128.79,0.9014
4132.08,0.9024
4135.38,0.9038
4138.68,0.9052
4141.98,0.9065
4145.29,0.9071
4148.61,0.9073
4151.93,0.9083
4155.26,0.9094
4158.59,0.9108
4161.93,0.9117
4165.27,0.9127
4168.62,0.9134
4171.97,0.9136
4175.33,0.9146
4178.69,0.916
4182.06,0.9166
4185.44,0.9167
4188.82,0.9175
4192.21,0.9189
4195.6,0.9201
4198.99,0.9209
4202.4,0.9218
4205.8,0.9231
4209.22,0.9242
4212.64,0.9252
4216.06,0.9252
4219.49,0.9254
4222.93,0.9263
4226.37,0.9278
4229.82,0.929
4233.27,0.9305
4236.73,0.932
4240.19,0.9326
4243.66,0.933
4247.14,0.9338
4250.62,0.9344
4254.1,0.9359
4257.6,0.9374
4261.09,0.9381
4264.6,0.9384
4268.11,0.9393
4271.62,0.9405
4275.14,0.9411
4278.67,0.9421
4282.2,0.9435
4285.74,0.9445
4289.29,0.9456
4292.84,0.9463
4296.4,0.9476
4299.96,0.9485
4303.53,0.9491
4307.1,0.9495
4310.68,0.9501
4314.27,0.951
4317.86,0.9517
4321.46,0.9526
4325.06,0.9535
4328.67,0.9536
4332.29,0.954
4335.91,0.9539
4339.54,0.9545
4343.17,0.9559
4346.81,0.9564
4350.46,0.9566
4354.11,0.9573
4357.77,0.9574
4361.43,0.9573
4365.1,0.9572
4368.78,0.9574
4372.46,0.9581
4376.15,0.9587
4379.85,0.9592
4383.55,0.9594
4387.26,0.9595
4390.97,0.9599
4394.69,0.96
4398.42,0.9601
4402.16,0.9603
4405.9,0.9608
4409.64,0.9611
4413.39,0.9618
4417.15,0.9627
4420.92,0.9632
4424.69,0.9628
4428.47,0.9628
4432.25,0.9633
4436.04,0.9638
4439.84,0.9641
4443.65,0.9641
4447.46,0.9637
4451.27,0.9638
4455.1,0.9643
4458.93,0.9644
4462.77,0.9645
4466.61,0.9647
4470.46,0.965
4474.32,0.9649
4478.18,0.9643
4482.05,0.9642
4485.93,0.964
4489.81,0.9637
4493.7,0.9641
4497.6,0.9648
4501.5,0.9648
4505.41,0.9649
4509.33,0.9647
4513.25,0.9648
4517.18,0.9646
4521.12,0.9644
4525.07,0.9647
4529.02,0.9648
4532.98,0.9646
4536.94,0.9646
4540.92,0.9648
4544.9,0.9648
4548.88,0.964
4552.88,0.9634
4556.88,0.9632
4560.88,0.963
4564.9,0.9629
4568.92,0.9626
4572.95,0.9623
4576.98,0.9621
4581.03,0.9618
4585.08,0.9613
4589.13,0.9607
4593.2,0.9604
4597.27,0.9602
4601.35,0.9603
4605.44,0.9602
4609.53,0.96
4613.63,0.9604
4617.74,0.9604
4621.85,0.96
4625.97,0.9601
4630.1,0.9597
4634.24,0.9593
4638.39,0.9595
4642.54,0.9596
4646.7,0.9599
4650.87,0.96
4655.04,0.9601
4659.22,0.9602
4663.41,0.9607
4667.61,0.9615
4671.81,0.962
4676.03,0.9617
4680.25,0.9614
4684.47,0.9622
4688.71,0.9623
4692.95,0.9616
4697.2,0.9619
4701.46,0.962
4705.73,0.9622
4710.0,0.9625
4714.28,0.9627
4718.57,0.963
4722.87,0.9626
4727.17,0.9622
4731.49,0.9617
4735.81,0.961
4740.13,0.9603
4744.47,0.9595
4748.82,0.9582
4753.17,0.9569
4757.53,0.9558
4761.9,0.9544
4766.27,0.9527
4770.66,0.9512
4775.05,0.9498
4779.45,0.9479
4783.86,0.9469
4788.28,0.9457
4792.7,0.945
4797.13,0.9444
4801.58,0.9431
4806.03,0.9418
4810.48,0.941
4814.95,0.9402
4819.42,0.9395
4823.91,0.9389
4828.4,0.9383
4832.9,0.9377
4837.4,0.9366
4841.92,0.9363
4846.45,0.9365
4850.98,0.9358
4855.52,0.9351
4860.07,0.9348
4864.63,0.9344
4869.2,0.9337
4873.77,0.9335
4878.36,0.9331
4882.95,0.9324
4887.55,0.9315
4892.16,0.9311
4896.78,0.9309
4901.41,0.9303
4906.05,0.9302
4910.69,0.93
4915.35,0.9293
4920.01,0.9293
4924.68,0.9296
4929.36,0.9292
4934.05,0.9285
4938.75,0.928
4943.46,0.9278
4948.18,0.9281
4952.9,0.9283
4957.64,0.9283
4962.38,0.9288
4967.13,0.9299
4971.89,0.9301
4976.67,0.9294
4981.45,0.9288
4986.23,0.9284
4991.03,0.928
4995.84,0.9275
5000.66,0.927
5005.49,0.9268
5010.32,0.9272
5015.17,0.9276
5020.02,0.9275
5024.88,0.9273
5029.76,0.9273
5034.64,0.9277
5039.53,0.9279
5044.43,0.9278
5049.35,0.9273
5054.27,0.9272
5059.2,0.9274
5064.14,0.9273
5069.09,0.9271
5074.05,0.927
5079.02,0.9267
5084.0,0.9262
5088.98,0.926
5093.98,0.9265
5098.99,0.9264
5104.01,0.9264
5109.04,0.9265
5114.08,0.9264
5119.12,0.9263
5124.18,0.926
5129.25,0.9259
5134.33,0.9259
5139.42,0.9256
5144.51,0.9251
5149.62,0.925
5154.74,0.9251
5159.87,0.9247
5165.01,0.9244
5170.16,0.9241
5175.32,0.9237
5180.49,0.9237
5185.67,0.9235
5190.86,0.9235
5196.06,0.9236
5201.27,0.9235
5206.49,0.9235
5211.72,0.9233
5216.96,0.9234
5222.22,0.9232
5227.48,0.9231
5232.76,0.9235
5238.04,0.9241
5243.34,0.9243
5248.64,0.9244
5253.96,0.9247
5259.29,0.9249
5264.63,0.9252
5269.98,0.9255
5275.34,0.9257
5280.71,0.926
5286.09,0.9264
5291.49,0.9272
5296.89,0.9273
5302.31,0.9273
5307.73,0.9277
5313.17,0.9277
5318.62,0.9276
5324.08,0.9279
5329.55,0.9287
5335.03,0.9293
5340.53,0.9293
5346.03,0.9293
5351.55,0.9298
5357.08,0.9302
5362.62,0.9302
5368.17,0.9306
5373.73,0.9311
5379.3,0.9313
5384.89,0.9315
5390.49,0.9316
5396.09,0.9315
5401.71,0.9319
5407.35,0.9321
5412.99,0.9326
5418.65,0.933
5424.31,0.9334
5429.99,0.934
5435.68,0.9347
5441.39,0.9349
5447.1,0.9353
5452.83,0.9359
5458.57,0.9366
5464.32,0.9374
5470.08,0.9384
5475.86,0.9393
5481.65,0.9402
5487.45,0.9408
5493.26,0.9413
5499.08,0.9422
5504.92,0.943
5510.77,0.9436
5516.63,0.9446
5522.51,0.9453
5528.39,0.946
5534.29,0.9472
5540.21,0.9481
5546.13,0.9486
5552.07,0.9489
5558.02,0.9491
5563.98,0.9493
5569.96,0.9498
5575.95,0.9504
5581.95,0.9507
5587.96,0.9509
5593.99,0.9513
5600.03,0.9518
5606.08,0.952
5612.15,0.9527
5618.23,0.9535
5624.32,0.9538
5630.43,0.954
5636.55,0.9545
5642.68,0.9549
5648.83,0.9553
5654.99,0.9556
5661.16,0.956
5667.35,0.9564
5673.55,0.9571
5679.76,0.9573
5685.99,0.9574
5692.23,0.9579
5698.48,0.9585
5704.75,0.9594
5711.03,0.96
5717.33,0.9598
5723.64,0.9601
5729.96,0.9607
5736.3,0.9612
5742.65,0.9617
5749.02,0.9624
5755.4,0.9629
5761.79,0.9631
5768.2,0.9632
5774.62,0.9636
5781.06,0.964
5787.51,0.9646
5793.98,0.9649
5800.46,0.965
5806.95,0.9654
5813.46,0.9661
5819.98,0.9665
5826.52,0.9666
5833.08,0.967
5839.64,0.9678
5846.23,0.9681
5852.83,0.9689
5859.44,0.9698
5866.07,0.97
5872.71,0.9708
5879.37,0.9721
5886.04,0.9728
5892.73,0.9736
5899.43,0.9745
5906.15,0.9757
5912.88,0.9766
5919.63,0.977
5926.4,0.977
5933.18,0.977
5939.97,0.9766
5946.78,0.976
5953.61,0.9759
5960.45,0.9758
5967.31,0.9752
5974.18,0.975
5981.07,0.9751
5987.98,0.975
5994.9,0.9745
6001.84,0.9745
6008.79,0.975
6015.76,0.9754
6022.75,0.9751
6029.75,0.9753
6036.77,0.976
6043.81,0.977
6050.86,0.9772
6057.93,0.9767
6065.01,0.9768
6072.11,0.9783
6079.23,0.9794
6086.36,0.9797
6093.51,0.9797
6100.68,0.9801
6107.87,0.9799
6115.07,0.9789
6122.29,0.9767
6129.52,0.9734
6136.78,0.968
6144.05,0.9619
6151.34,0.9561
6158.64,0.9526
6165.96,0.953
6173.3,0.9554
6180.66,0.958
6188.03,0.9601
6195.43,0.9613
6202.84,0.9625
6210.26,0.9633
6217.71,0.9637
6225.17,0.9642
6232.65,0.9652
6240.15,0.9654
6247.67,0.9653
6255.21,0.965
6262.76,0.965
6270.33,0.9654
6277.92,0.966
6285.53,0.9656
6293.16,0.9655
6300.8,0.9652
6308.47,0.9651
6316.15,0.9653
6323.85,0.9656
6331.57,0.9656
6339.31,0.9657
6347.07,0.965
6354.85,0.9649
6362.65,0.965
6370.46,0.9652
6378.3,0.9653
6386.15,0.9659
6394.02,0.9659
6401.92,0.9656
6409.83,0.9655
6417.76,0.9661
6425.71,0.9661
6433.68,0.9663
6441.67,0.9662
6449.69,0.9663
6457.72,0.9663
6465.77,0.9667
6473.84,0.9663
6481.93,0.9661
6490.04,0.9664
6498.17,0.9666
6506.33,0.9667
6514.5,0.9673
6522.69,0.9669
6530.91,0.9668
6539.14,0.967
6547.4,0.9672
6555.67,0.9669
6563.97,0.9665
6572.29,0.9665
6580.63,0.9669
6588.99,0.9667
6597.37,0.9667
6605.77,0.9666
6614.2,0.9672
6622.65,0.9671
6631.11,0.9671
6639.6,0.9672
6648.11,0.9671
6656.65,0.967
6665.2,0.9674
6673.78,0.9676
6682.38,0.9677
6691.0,0.968
6699.64,0.9683
6708.31,0.9685
6717.0,0.9685
6725.71,0.9681
6734.44,0.9684
6743.2,0.9688
6751.98,0.969
6760.78,0.969
6769.61,0.9696
6778.45,0.97
6787.32,0.9701
6796.22,0.9698
6805.14,0.9694
6814.08,0.9695
6823.04,0.97
6832.03,0.9697
6841.04,0.97
6850.08,0.9702
6859.14,0.9703
6868.22,0.9706
6877.33,0.9714
6886.46,0.9716
6895.62,0.9713
6904.8,0.9711
6914.01,0.9712
6923.24,0.971
6932.49,0.9712
6941.77,0.9711
6951.07,0.9711
6960.4,0.9714
6969.76,0.9715
6979.14,0.9711
6988.54,0.9713
6997.97,0.9713
7007.43,0.9717
7016.91,0.9722
7026.41,0.973
7035.95,0.9731
7045.51,0.9734
7055.09,0.9735
7064.7,0.9738
7074.34,0.974
7084.0,0.974
7093.69,0.9742
7103.41,0.9748
7113.15,0.9751
7122.92,0.9757
7132.71,0.9759
7142.54,0.9759
7152.39,0.9756
7162.27,0.9759
7172.17,0.9759
7182.1,0.976
7192.06,0.9763
7202.05,0.9766
7212.07,0.9767
7222.11,0.9773
7232.18,0.9777
7242.28,0.9781
7252.41,0.9778
7262.57,0.9784
7272.75,0.9785
7282.96,0.9788
7293.21,0.9792
7303.48,0.9791
7313.78,0.9789
7324.1,0.9798
7334.46,0.9806
7344.85,0.9817
7355.27,0.9813
7365.71,0.9813
7376.19,0.982
7386.7,0.9821
7397.23,0.9818
7407.8,0.9825
7418.39,0.9829
7429.02,0.9836
7439.68,0.9836
7450.37,0.9841
7461.08,0.9841
7471.83,0.9846
7482.61,0.9846
7493.43,0.9847
7504.27,0.9849
7515.14,0.9852
7526.05,0.9854
7536.99,0.9861
7547.96,0.9861
7558.96,0.9859
7569.99,0.9859
7581.06,0.9865
7592.15,0.9868
7603.28,0.987
7614.45,0.9871
7625.64,0.9875
7636.87,0.9871
7648.14,0.9872
7659.43,0.9878
7670.76,0.9885
7682.12,0.9887
7693.52,0.9895
7704.95,0.9894
7716.41,0.9894
7727.91,0.989
7739.44,0.9892
7751.01,0.9895
7762.61,0.9901
7774.25,0.9903
7785.92,0.9905
7797.63,0.99
7809.37,0.9897
7821.15,0.9901
7832.96,0.9911
7844.81,0.9911
7856.69,0.9906
7868.61,0.9904
7880.57,0.9908
7892.56,0.9906
7904.59,0.9912
7916.66,0.9906
7928.76,0.9901
7940.9,0.99
7953.08,0.9908
7965.29,0.991
7977.55,0.9906
7989.84,0.9895
8002.17,0.989
8014.53,0.9884
8026.94,0.9885
8039.38,0.988
8051.86,0.9872
8064.38,0.9857
8076.94,0.9846
8089.54,0.9834
8102.18,0.9828
8114.86,0.9818
8127.57,0.9803
8140.33,0.9776
8153.13,0.9751
8165.96,0.9718
8178.84,0.9686
8191.76,0.9652
8204.72,0.9603
8217.72,0.954
8230.76,0.9479
8243.85,0.94
8256.97,0.9314
8270.14,0.9222
8283.35,0.9138
8296.6,0.9056
8309.89,0.8978
8323.23,0.8917
8336.61,0.8872
8350.03,0.8824
8363.5,0.8793
8377.01,0.8753
8390.56,0.8702
8404.16,0.863
8417.8,0.8543
8431.48,0.8454
8445.21,0.8372
8458.99,0.8292
8472.81,0.8215
8486.67,0.8118
8500.58,0.8005
8514.54,0.7875
8528.54,0.7745
8542.59,0.7644
8556.68,0.7577
8570.83,0.7514
8585.01,0.7475
8599.25,0.7441
8613.53,0.7405
8627.86,0.7368
8642.24,0.7336
8656.66,0.7307
8671.14,0.7292
8685.66,0.7276
8700.23,0.7279
8714.85,0.7286
8729.52,0.7307
8744.24,0.734
8759.01,0.7387
8773.83,0.7427
8788.69,0.7481
8803.61,0.7543
8818.58,0.7607
8833.6,0.7663
8848.68,0.7723
8863.8,0.778
8878.97,0.7846
8894.2,0.7913
8909.48,0.7975
8924.81,0.8026
8940.2,0.8096
8955.64,0.8175
8971.13,0.8276
8986.67,0.8382
9002.27,0.8494
9017.93,0.8603
9033.64,0.8706
9049.4,0.8783
9065.22,0.8854
9081.09,0.8914
9097.02,0.897
9113.0,0.9014
9129.04,0.9056
9145.14,0.9096
9161.3,0.9135
9177.51,0.916
9193.78,0.9183
9210.11,0.92
9226.49,0.9229
9242.94,0.9253
9259.44,0.9285
9276.0,0.9301
9292.62,0.9316
9309.3,0.9328
9326.04,0.9345
9342.84,0.9344
9359.7,0.9358
9376.63,0.9369
9393.61,0.9378
9410.66,0.9375
9427.76,0.9389
9444.93,0.9403
9462.17,0.9415
9479.46,0.9417
9496.82,0.9423
9514.24,0.9424
9531.73,0.9431
9549.28,0.9432
9566.89,0.9434
9584.58,0.9437
9602.32,0.9449
9620.13,0.9464
9638.01,0.9476
9655.96,0.9476
9673.97,0.9479
9692.05,0.9479
9710.19,0.9488
9728.41,0.949
9746.69,0.9499
9765.04,0.9501
9783.47,0.951
9801.96,0.9517
9820.52,0.9524
9839.15,0.9526
9857.85,0.953
9876.62,0.9533
9895.47,0.9548
9914.39,0.9555
9933.38,0.9558
9952.44,0.9557
9971.58,0.9565
9990.78,0.9571
10010.07,0.9575
10029.43,0.9568
10048.86,0.9573
10068.37,0.9582
10087.95,0.9593
10107.61,0.9591
10127.35,0.9591
10147.17,0.9592
10167.06,0.9597
10187.03,0.9595
10207.08,0.9592
10227.21,0.9588
10247.42,0.9601
10267.71,0.9604
10288.07,0.9605
10308.52,0.9607
10329.06,0.9614
10349.67,0.9614
10370.36,0.9617
10391.14,0.9613
10412.0,0.962
10432.95,0.9621
10453.98,0.9623
10475.1,0.9618
10496.3,0.9625
10517.58,0.9626
10538.96,0.9629
10560.42,0.9622
10582.0,0.9627
10603.6,0.9628
10625.3,0.9633
10647.1,0.9634
10669.0,0.9639
10691.0,0.9641
10713.1,0.9643
10735.3,0.9639
10757.6,0.9645
10779.9,0.9649
10802.4,0.9651
10824.9,0.9644
10847.6,0.9654
10870.3,0.9654
10893.1,0.9652
10916.1,0.9653
10939.1,0.9656
10962.2,0.9651
10985.4,0.966
11008.7,0.9658
11032.2,0.9654
11055.7,0.9657
11079.3,0.967
11103.0,0.9664
11126.9,0.9661
11150.8,0.9661
11174.8,0.9666
11198.9,0.966
11223.2,0.9666
11247.5,0.9667
11271.9,0.9674
11296.5,0.9675
11321.2,0.9684
11345.9,0.9675
11370.8,0.9672
11395.8,0.9678
11420.9,0.9685
11446.1,0.9677
11471.4,0.9675
11496.8,0.9676
11522.4,0.9687
11548.0,0.9688
11573.8,0.9694
11599.7,0.969
11625.7,0.9694
11651.8,0.9697
11678.1,0.9703
11704.4,0.969
11730.9,0.969
11757.5,0.9695
11784.2,0.9702
11811.0,0.9701
11838.0,0.9701
11865.1,0.9695
11892.3,0.9706
11919.6,0.9706
11947.1,0.9707
11974.7,0.9707
12002.4,0.9714
12030.2,0.9709
12058.2,0.9709
12086.3,0.971
12114.5,0.9718
12142.9,0.9724
12171.4,0.9727
12200.0,0.9719
12228.8,0.9721
12257.7,0.9724
12286.7,0.9733
12315.9,0.9731
12345.2,0.9739
12374.7,0.9738
12404.3,0.9734
12434.0,0.9724
12463.9,0.9725
12493.9,0.9727
12524.1,0.9747
12554.4,0.9753
12584.9,0.9751
12615.5,0.974
12646.3,0.975
12677.2,0.9753
12708.2,0.9755
12739.5,0.9748
12770.8,0.9752
12802.4,0.9753
12834.0,0.9755
12865.9,0.9756
12897.9,0.9763
12930.0,0.9764
12962.3,0.9777
12994.8,0.9771
13027.5,0.9771
13060.3,0.9769
13093.3,0.9773
13126.4,0.9775
13159.7,0.9781
13193.2,0.978
13226.8,0.979
13260.6,0.9786
13294.6,0.9792
13328.8,0.9797
13363.2,0.98
13397.7,0.9787
13432.4,0.9788
13467.2,0.9789
13502.3,0.9803
13537.6,0.9806
13573.0,0.9809
13608.6,0.9805
13644.4,0.9808
13680.4,0.9792
13716.6,0.9799
13753.0,0.9797
13789.5,0.9809
13826.3,0.9817
13863.3,0.9824
13900.4,0.982
13937.8,0.9844
13975.3,0.9837
14013.1,0.9826
14051.1,0.9806
14089.2,0.9833
14127.6,0.9846
14166.2,0.9842
14205.0,0.9793
14244.0,0.9789
14283.2,0.9775
14322.7,0.9775
14362.4,0.9726
14402.2,0.9696
14442.3,0.9595
14482.7,0.954
14523.2,0.9429
14564.0,0.9365
14605.0,0.9252
14646.3,0.9148
14687.8,0.9029
14729.5,0.9037
14771.4,0.8955
14813.6,0.9001
14856.0,0.8986
14898.7,0.9106
14941.7,0.9189
14984.8,0.945
15028.3,0.9566
15071.9,0.9736
15115.9,0.9583
15160.0,0.96
