Database of Origin,University of Winnipeg Spectrophotometer Facility
Sample Description,8. Sulfates - Jim Crowley (USGS) IR spectra /  Crowley IR spectra
Date Added,2016-07-15 22:04:24.226182

Data ID,CWL_SUL_21          
Sample ID,Gypsum
Mineral Name,Gypsum
Locality,"Baja California, Mexico"
Grain Size,~250
Viewing Geometry,unknown
Resolution,0.08-40
Material Class,Sulfate

Wavelength
2083.55,0.752
2084.39,0.7506
2085.23,0.7532
2086.06,0.7517
2086.9,0.754
2087.74,0.7565
2088.58,0.7531
2089.43,0.7518
2090.27,0.7519
2091.11,0.7526
2091.95,0.754
2092.8,0.7563
2093.64,0.7557
2094.49,0.7515
2095.33,0.7489
2096.18,0.7462
2097.03,0.7461
2097.88,0.7514
2098.73,0.7543
2099.58,0.7516
2100.43,0.7487
2101.28,0.747
2102.13,0.7494
2102.98,0.7501
2103.83,0.7508
2104.69,0.7522
2105.54,0.7494
2106.4,0.7484
2107.25,0.7495
2108.11,0.7486
2108.97,0.7499
2109.83,0.7521
2110.68,0.7515
2111.54,0.7492
2112.4,0.7498
2113.27,0.749
2114.13,0.7498
2114.99,0.7517
2115.85,0.7531
2116.72,0.7521
2117.58,0.7522
2118.44,0.7523
2119.31,0.7526
2120.18,0.7509
2121.04,0.7468
2121.91,0.7476
2122.78,0.7535
2123.65,0.7531
2124.52,0.7484
2125.39,0.7468
2126.26,0.7501
2127.13,0.7515
2128.01,0.752
2128.88,0.7499
2129.75,0.749
2130.63,0.7503
2131.5,0.7508
2132.38,0.7493
2133.26,0.7507
2134.14,0.7524
2135.01,0.7536
2135.89,0.7488
2136.77,0.7488
2137.65,0.751
2138.54,0.7507
2139.42,0.7514
2140.3,0.7503
2141.18,0.7489
2142.07,0.7499
2142.95,0.7505
2143.84,0.7529
2144.73,0.7517
2145.61,0.7519
2146.5,0.7542
2147.39,0.7535
2148.28,0.75
2149.17,0.7505
2150.06,0.7509
2150.95,0.7531
2151.85,0.7535
2152.74,0.7517
2153.63,0.7529
2154.53,0.7564
2155.42,0.757
2156.32,0.7569
2157.22,0.7573
2158.11,0.7571
2159.01,0.7553
2159.91,0.7553
2160.81,0.7548
2161.71,0.7564
2162.61,0.7571
2163.52,0.7585
2164.42,0.7597
2165.32,0.7595
2166.23,0.762
2167.13,0.761
2168.04,0.758
2168.94,0.7589
2169.85,0.761
2170.76,0.7621
2171.67,0.7603
2172.58,0.7592
2173.49,0.7581
2174.4,0.7572
2175.31,0.7605
2176.23,0.7628
2177.14,0.762
2178.05,0.7639
2178.97,0.7642
2179.89,0.7633
2180.8,0.7623
2181.72,0.7617
2182.64,0.7628
2183.56,0.7644
2184.48,0.763
2185.4,0.761
2186.32,0.7638
2187.24,0.7655
2188.16,0.7636
2189.09,0.7634
2190.01,0.7651
2190.94,0.7642
2191.86,0.761
2192.79,0.7616
2193.72,0.7626
2194.64,0.7631
2195.57,0.7623
2196.5,0.7624
2197.43,0.7649
2198.37,0.7682
2199.3,0.7669
2200.23,0.7671
2201.16,0.7658
2202.1,0.7652
2203.03,0.765
2203.97,0.7664
2204.91,0.7677
2205.85,0.7697
2206.78,0.7718
2207.72,0.7716
2208.66,0.7713
2209.61,0.7725
2210.55,0.7725
2211.49,0.7734
2212.43,0.7727
2213.38,0.7706
2214.32,0.7716
2215.27,0.7759
2216.21,0.7767
2217.16,0.7783
2218.11,0.778
2219.06,0.7769
2220.01,0.7763
2220.96,0.7751
2221.91,0.7744
2222.86,0.7738
2223.82,0.7723
2224.77,0.7714
2225.73,0.7698
2226.68,0.7681
2227.64,0.7674
2228.6,0.7674
2229.55,0.7677
2230.51,0.7663
2231.47,0.7647
2232.43,0.765
2233.39,0.7622
2234.36,0.7598
2235.32,0.7603
2236.28,0.7625
2237.25,0.7628
2238.21,0.762
2239.18,0.7614
2240.15,0.7611
2241.12,0.7608
2242.08,0.7611
2243.05,0.7604
2244.02,0.7604
2245.0,0.76
2245.97,0.7635
2246.94,0.7626
2247.91,0.7602
2248.89,0.7619
2249.87,0.7628
2250.84,0.761
2251.82,0.7625
2252.8,0.763
2253.78,0.7617
2254.76,0.7639
2255.74,0.7654
2256.72,0.7624
2257.7,0.7626
2258.68,0.7647
2259.67,0.7665
2260.65,0.769
2261.64,0.7682
2262.63,0.7678
2263.61,0.7689
2264.6,0.7666
2265.59,0.7661
2266.58,0.7663
2267.57,0.7673
2268.56,0.7671
2269.56,0.7684
2270.55,0.7695
2271.55,0.7704
2272.54,0.7686
2273.54,0.7659
2274.53,0.7664
2275.53,0.7665
2276.53,0.7665
2277.53,0.7643
2278.53,0.763
2279.53,0.7627
2280.54,0.7612
2281.54,0.762
2282.54,0.7624
2283.55,0.7629
2284.55,0.7638
2285.56,0.7662
2286.57,0.7659
2287.58,0.7652
2288.59,0.7629
2289.6,0.7597
2290.61,0.7613
2291.62,0.765
2292.63,0.7654
2293.65,0.7641
2294.66,0.764
2295.68,0.7646
2296.69,0.7639
2297.71,0.7618
2298.73,0.7592
2299.75,0.7637
2300.77,0.7655
2301.79,0.7654
2302.81,0.7665
2303.84,0.7664
2304.86,0.7657
2305.88,0.7672
2306.91,0.7676
2307.94,0.7671
2308.96,0.7665
2309.99,0.7676
2311.02,0.7681
2312.05,0.7688
2313.08,0.7707
2314.12,0.7728
2315.15,0.7712
2316.18,0.7709
2317.22,0.771
2318.25,0.7717
2319.29,0.7731
2320.33,0.7734
2321.37,0.7732
2322.41,0.7738
2323.45,0.7732
2324.49,0.7745
2325.53,0.7768
2326.57,0.776
2327.62,0.7733
2328.66,0.7741
2329.71,0.7762
2330.76,0.7778
2331.8,0.78
2332.85,0.78
2333.9,0.7797
2334.95,0.7796
2336.01,0.7811
2337.06,0.7841
2338.11,0.7857
2339.17,0.7855
2340.22,0.7861
2341.28,0.7874
2342.34,0.7856
2343.39,0.7855
2344.45,0.7866
2345.51,0.7887
2346.57,0.7906
2347.64,0.7898
2348.7,0.7899
2349.76,0.7917
2350.83,0.7945
2351.9,0.7967
2352.96,0.7988
2354.03,0.8003
2355.1,0.7983
2356.17,0.7989
2357.24,0.7993
2358.31,0.8002
2359.39,0.8035
2360.46,0.8067
2361.53,0.8086
2362.61,0.8093
2363.69,0.8101
2364.76,0.811
2365.84,0.8122
2366.92,0.8134
2368.0,0.8138
2369.09,0.8142
2370.17,0.8149
2371.25,0.8173
2372.34,0.8195
2373.42,0.8197
2374.51,0.8206
2375.6,0.8229
2376.69,0.8238
2377.78,0.8241
2378.87,0.826
2379.96,0.8281
2381.05,0.8291
2382.14,0.8302
2383.24,0.8314
2384.33,0.835
2385.43,0.8375
2386.53,0.8388
2387.63,0.8382
2388.73,0.8405
2389.83,0.8437
2390.93,0.8473
2392.03,0.8473
2393.14,0.8475
2394.24,0.8496
2395.35,0.8508
2396.45,0.8527
2397.56,0.8554
2398.67,0.8556
2399.78,0.8575
2400.89,0.8587
2402.0,0.8604
2403.12,0.8622
2404.23,0.8642
2405.35,0.8671
2406.46,0.8691
2407.58,0.8683
2408.7,0.868
2409.82,0.8698
2410.94,0.8732
2412.06,0.8735
2413.18,0.873
2414.3,0.8753
2415.43,0.8785
2416.55,0.8775
2417.68,0.8767
2418.81,0.8787
2419.94,0.8797
2421.07,0.8804
2422.2,0.8807
2423.33,0.8795
2424.46,0.8802
2425.6,0.8817
2426.73,0.8834
2427.87,0.8839
2429.0,0.8846
2430.14,0.8827
2431.28,0.8835
2432.42,0.8848
2433.56,0.8864
2434.71,0.8854
2435.85,0.8864
2436.99,0.888
2438.14,0.8878
2439.29,0.8891
2440.43,0.8887
2441.58,0.8881
2442.73,0.8894
2443.88,0.8882
2445.04,0.8885
2446.19,0.8897
2447.34,0.8911
2448.5,0.8916
2449.66,0.8916
2450.81,0.8909
2451.97,0.892
2453.13,0.8917
2454.29,0.8913
2455.45,0.8918
2456.62,0.8938
2457.78,0.8939
2458.95,0.8931
2460.11,0.8936
2461.28,0.8944
2462.45,0.8947
2463.62,0.8955
2464.79,0.8969
2465.96,0.8985
2467.14,0.898
2468.31,0.8982
2469.49,0.8989
2470.66,0.8995
2471.84,0.8984
2473.02,0.8989
2474.2,0.9002
2475.38,0.9013
2476.56,0.9007
2477.74,0.9014
2478.93,0.9023
2480.11,0.9012
2481.3,0.9012
2482.49,0.9015
2483.68,0.9003
2484.87,0.9014
2486.06,0.9037
2487.25,0.9041
2488.44,0.9024
2489.64,0.9033
2490.83,0.9037
2492.03,0.9039
2493.23,0.9035
2494.43,0.904
2495.63,0.9033
2496.83,0.9034
2498.03,0.9029
2499.24,0.9019
2500.44,0.9021
2501.65,0.9022
2502.86,0.9025
2504.06,0.9028
2505.27,0.9024
2506.48,0.9029
2507.7,0.903
2508.91,0.9039
2510.12,0.9043
2511.34,0.9035
2512.56,0.9003
2513.77,0.9
2514.99,0.9007
2516.21,0.9017
2517.43,0.9022
2518.66,0.903
2519.88,0.9018
2521.11,0.9009
2522.33,0.9014
2523.56,0.9033
2524.79,0.9025
2526.02,0.9024
2527.25,0.9041
2528.48,0.904
2529.71,0.9031
2530.95,0.9027
2532.18,0.9031
2533.42,0.9031
2534.66,0.902
2535.9,0.902
2537.14,0.9016
2538.38,0.9027
2539.62,0.9025
2540.87,0.9032
2542.11,0.9033
2543.36,0.904
2544.61,0.9055
2545.86,0.9053
2547.11,0.9036
2548.36,0.9028
2549.61,0.9041
2550.87,0.9055
2552.12,0.9045
2553.38,0.905
2554.64,0.9053
2555.89,0.9049
2557.16,0.9039
2558.42,0.9044
2559.68,0.9049
2560.94,0.9048
2562.21,0.9054
2563.48,0.9067
2564.74,0.9065
2566.01,0.9073
2567.28,0.908
2568.55,0.9088
2569.83,0.9072
2571.1,0.9056
2572.38,0.9056
2573.65,0.9071
2574.93,0.9063
2576.21,0.9056
2577.49,0.9071
2578.77,0.9074
2580.05,0.907
2581.34,0.9079
2582.62,0.91
2583.91,0.9079
2585.2,0.907
2586.49,0.9095
2587.78,0.909
2589.07,0.9085
2590.36,0.909
2591.66,0.9095
2592.95,0.9081
2594.25,0.9073
2595.55,0.9085
2596.85,0.9103
2598.15,0.9105
2599.45,0.9094
2600.76,0.9088
2602.06,0.9097
2603.37,0.9093
2604.67,0.9097
2605.98,0.9106
2607.29,0.9109
2608.6,0.9092
2609.92,0.9095
2611.23,0.9093
2612.55,0.9097
2613.86,0.9105
2615.18,0.9126
2616.5,0.9123
2617.82,0.9113
2619.14,0.9119
2620.47,0.9129
2621.79,0.9133
2623.12,0.9134
2624.45,0.9129
2625.77,0.9128
2627.1,0.9145
2628.44,0.9149
2629.77,0.9131
2631.1,0.9131
2632.44,0.9146
2633.78,0.9161
2635.11,0.9162
2636.45,0.9179
2637.79,0.9177
2639.14,0.9167
2640.48,0.9164
2641.83,0.9182
2643.17,0.919
2644.52,0.9192
2645.87,0.9194
2647.22,0.9206
2648.57,0.9213
2649.92,0.9209
2651.28,0.9212
2652.64,0.9239
2653.99,0.9247
2655.35,0.9245
2656.71,0.9255
2658.07,0.9273
2659.44,0.9288
2660.8,0.9302
2662.17,0.9301
2663.53,0.931
2664.9,0.9316
2666.27,0.9326
2667.64,0.9334
2669.02,0.933
2670.39,0.9334
2671.77,0.9355
2673.14,0.9359
2674.52,0.9381
2675.9,0.9402
2677.28,0.9411
2678.67,0.941
2680.05,0.9417
2681.44,0.9432
2682.82,0.9446
2684.21,0.9449
2685.6,0.9458
2686.99,0.9462
2688.39,0.9462
2689.78,0.9479
2691.18,0.9501
2692.57,0.9517
2693.97,0.9542
2695.37,0.9563
2696.77,0.9575
2698.18,0.9572
2699.58,0.9581
2700.99,0.9598
2702.4,0.9615
2703.8,0.961
2705.22,0.9619
2706.63,0.9645
2708.04,0.9661
2709.45,0.9664
2710.87,0.9671
2712.29,0.9672
2713.71,0.9681
2715.13,0.9701
2716.55,0.9709
2717.97,0.971
2719.4,0.9712
2720.83,0.9719
2722.25,0.9733
2723.68,0.9733
2725.12,0.9745
2726.55,0.9759
2727.98,0.9766
2729.42,0.9768
2730.86,0.9769
2732.29,0.9772
2733.73,0.9779
2735.18,0.9784
2736.62,0.9799
2738.06,0.9798
2739.51,0.9799
2740.96,0.981
2742.41,0.9821
2743.86,0.9812
2745.31,0.9814
2746.77,0.9828
2748.22,0.9843
2749.68,0.9851
2751.14,0.9849
2752.6,0.9838
2754.06,0.9834
2755.52,0.9832
2756.99,0.983
2758.45,0.9833
2759.92,0.9832
2761.39,0.9843
2762.86,0.9852
2764.33,0.9849
2765.81,0.9854
2767.28,0.9852
2768.76,0.9846
2770.24,0.9846
2771.72,0.9862
2773.2,0.9867
2774.69,0.9868
2776.17,0.9869
2777.66,0.986
2779.15,0.9845
2780.64,0.9846
2782.13,0.9848
2783.62,0.9853
2785.12,0.9847
2786.61,0.9846
2788.11,0.9862
2789.61,0.9868
2791.11,0.9852
2792.62,0.9857
2794.12,0.9865
2795.63,0.9865
2797.14,0.9849
2798.64,0.9843
2800.16,0.9841
2801.67,0.9834
2803.18,0.9824
2804.7,0.9819
2806.22,0.9813
2807.74,0.9815
2809.26,0.9816
2810.78,0.982
2812.3,0.9813
2813.83,0.982
2815.36,0.9819
2816.89,0.9811
2818.42,0.9802
2819.95,0.9798
2821.48,0.9803
2823.02,0.9808
2824.56,0.9796
2826.1,0.9796
2827.64,0.979
2829.18,0.9788
2830.72,0.9802
2832.27,0.9818
2833.82,0.9814
2835.37,0.9818
2836.92,0.9815
2838.47,0.9812
2840.02,0.9809
2841.58,0.9821
2843.14,0.9817
2844.7,0.9814
2846.26,0.9819
2847.82,0.9826
2849.39,0.9832
2850.95,0.984
2852.52,0.9841
2854.09,0.983
2855.66,0.9824
2857.24,0.9839
2858.81,0.9836
2860.39,0.984
2861.97,0.9842
2863.55,0.9841
2865.13,0.9842
2866.71,0.9842
2868.3,0.9833
2869.88,0.9838
2871.47,0.9831
2873.06,0.9834
2874.66,0.9848
2876.25,0.9858
2877.85,0.9848
2879.45,0.9852
2881.04,0.985
2882.65,0.9838
2884.25,0.9821
2885.85,0.9837
2887.46,0.9858
2889.07,0.9867
2890.68,0.9852
2892.29,0.9845
2893.91,0.9841
2895.52,0.9837
2897.14,0.9832
2898.76,0.9835
2900.38,0.9836
2902.0,0.9836
2903.63,0.9837
2905.25,0.9837
2906.88,0.983
2908.51,0.982
2910.14,0.9809
2911.78,0.9805
2913.41,0.9807
2915.05,0.9794
2916.69,0.9776
2918.33,0.9777
2919.98,0.9776
2921.62,0.9769
2923.27,0.9764
2924.92,0.9763
2926.57,0.9758
2928.22,0.9748
2929.87,0.9743
2931.53,0.975
2933.19,0.9745
2934.85,0.9736
2936.51,0.9739
2938.17,0.9755
2939.84,0.9755
2941.51,0.9749
2943.18,0.9741
2944.85,0.9756
2946.52,0.9766
2948.19,0.977
2949.87,0.9771
2951.55,0.978
2953.23,0.9789
2954.91,0.9788
2956.6,0.9779
2958.28,0.9786
2959.97,0.9784
2961.66,0.9782
2963.36,0.9778
2965.05,0.9788
2966.75,0.9791
2968.44,0.9792
2970.14,0.9803
2971.85,0.9813
2973.55,0.9805
2975.26,0.9797
2976.96,0.9792
2978.67,0.9795
2980.39,0.9797
2982.1,0.9799
2983.82,0.9798
2985.53,0.9805
2987.25,0.9802
2988.97,0.9806
2990.7,0.9811
2992.42,0.9816
2994.15,0.9816
2995.88,0.9816
2997.61,0.9814
2999.35,0.981
3001.08,0.9819
3002.82,0.9822
3004.56,0.9816
3006.3,0.9811
3008.04,0.9811
3009.79,0.982
3011.54,0.9821
3013.29,0.9817
3015.04,0.9813
3016.79,0.9815
3018.55,0.9816
3020.31,0.9817
3022.07,0.9814
3023.83,0.9803
3025.59,0.98
3027.36,0.981
3029.13,0.982
3030.9,0.9813
3032.67,0.9799
3034.44,0.9811
3036.22,0.9818
3038.0,0.9823
3039.78,0.9814
3041.56,0.9804
3043.35,0.9809
3045.14,0.9821
3046.92,0.9819
3048.72,0.9821
3050.51,0.9825
3052.3,0.9825
3054.1,0.9818
3055.9,0.9812
3057.7,0.981
3059.51,0.9817
3061.31,0.9817
3063.12,0.9811
3064.93,0.9815
3066.74,0.982
3068.56,0.9813
3070.37,0.9812
3072.19,0.9813
3074.01,0.9815
3075.84,0.9813
3077.66,0.9815
3079.49,0.9818
3081.32,0.9826
3083.15,0.9824
3084.99,0.9813
3086.82,0.9811
3088.66,0.9819
3090.5,0.9824
3092.34,0.982
3094.19,0.9814
3096.04,0.9819
3097.89,0.9816
3099.74,0.9814
3101.59,0.9808
3103.45,0.9807
3105.31,0.9808
3107.17,0.981
3109.03,0.9806
3110.89,0.98
3112.76,0.9804
3114.63,0.9809
3116.5,0.9805
3118.38,0.9802
3120.25,0.9801
3122.13,0.9803
3124.01,0.9803
3125.89,0.9806
3127.78,0.981
3129.67,0.9816
3131.56,0.9814
3133.45,0.981
3135.34,0.9808
3137.24,0.9802
3139.14,0.9796
3141.04,0.98
3142.94,0.98
3144.85,0.9804
3146.76,0.9807
3148.67,0.9804
3150.58,0.98
3152.5,0.9801
3154.41,0.98
3156.33,0.9803
3158.25,0.9798
3160.18,0.9795
3162.11,0.9794
3164.04,0.9791
3165.97,0.9785
3167.9,0.9785
3169.84,0.9787
3171.78,0.9788
3173.72,0.9783
3175.66,0.9781
3177.61,0.9781
3179.55,0.9781
3181.5,0.9778
3183.46,0.9778
3185.41,0.978
3187.37,0.9782
3189.33,0.9789
3191.29,0.9789
3193.26,0.9778
3195.23,0.9775
3197.2,0.9777
3199.17,0.9776
3201.14,0.9773
3203.12,0.9772
3205.1,0.9766
3207.08,0.9762
3209.07,0.976
3211.05,0.9759
3213.04,0.9758
3215.03,0.9765
3217.03,0.9764
3219.03,0.9757
3221.02,0.9761
3223.03,0.9764
3225.03,0.9757
3227.04,0.9755
3229.05,0.9758
3231.06,0.9757
3233.07,0.9747
3235.09,0.9745
3237.11,0.9743
3239.13,0.9741
3241.15,0.9744
3243.18,0.9747
3245.21,0.9735
3247.24,0.9726
3249.28,0.9731
3251.31,0.9738
3253.35,0.974
3255.4,0.9733
3257.44,0.9727
3259.49,0.9732
3261.54,0.9727
3263.59,0.972
3265.65,0.9719
3267.7,0.972
3269.76,0.9717
3271.83,0.9715
3273.89,0.972
3275.96,0.972
3278.03,0.9709
3280.1,0.9701
3282.18,0.9697
3284.26,0.9701
3286.34,0.97
3288.42,0.9693
3290.51,0.9685
3292.6,0.9689
3294.69,0.9694
3296.78,0.9691
3298.88,0.9685
3300.98,0.9679
3303.08,0.9676
3305.19,0.968
3307.3,0.9673
3309.41,0.9663
3311.52,0.9661
3313.64,0.9663
3315.75,0.9659
3317.88,0.966
3320.0,0.9656
3322.13,0.9648
3324.26,0.9647
3326.39,0.9649
3328.52,0.965
3330.66,0.9647
3332.8,0.9636
3334.94,0.9632
3337.09,0.9635
3339.24,0.9635
3341.39,0.9626
3343.54,0.9619
3345.7,0.9617
3347.86,0.9617
3350.02,0.9613
3352.19,0.9605
3354.36,0.9602
3356.53,0.9606
3358.7,0.9608
3360.88,0.9603
3363.06,0.9591
3365.24,0.9585
3367.43,0.9583
3369.61,0.9583
3371.8,0.958
3374.0,0.9576
3376.19,0.9568
3378.39,0.9556
3380.6,0.9556
3382.8,0.9564
3385.01,0.955
3387.22,0.954
3389.43,0.9539
3391.65,0.9541
3393.87,0.954
3396.09,0.9538
3398.32,0.9529
3400.55,0.9521
3402.78,0.9517
3405.01,0.9514
3407.25,0.9509
3409.49,0.9505
3411.73,0.9497
3413.98,0.9498
3416.23,0.9495
3418.48,0.9492
3420.73,0.9482
3422.99,0.9475
3425.25,0.9471
3427.51,0.9467
3429.78,0.9463
3432.05,0.9459
3434.32,0.9459
3436.6,0.9465
3438.88,0.9458
3441.16,0.9451
3443.45,0.9449
3445.73,0.9443
3448.02,0.9437
3450.32,0.9431
3452.61,0.9425
3454.91,0.9425
3457.22,0.9417
3459.52,0.9415
3461.83,0.9415
3464.15,0.9414
3466.46,0.9406
3468.78,0.94
3471.1,0.9399
3473.43,0.9398
3475.75,0.939
3478.09,0.9383
3480.42,0.9373
3482.76,0.9373
3485.1,0.9371
3487.44,0.9366
3489.79,0.9362
3492.14,0.936
3494.49,0.9352
3496.85,0.9339
3499.21,0.9331
3501.57,0.9323
3503.93,0.9315
3506.3,0.9314
3508.68,0.9314
3511.05,0.9309
3513.43,0.9303
3515.81,0.9304
3518.2,0.9303
3520.58,0.9301
3522.98,0.9296
3525.37,0.9292
3527.77,0.9287
3530.17,0.928
3532.57,0.9272
3534.98,0.9264
3537.39,0.926
3539.81,0.9265
3542.23,0.9262
3544.65,0.9253
3547.07,0.9241
3549.5,0.9233
3551.93,0.9231
3554.36,0.9232
3556.8,0.9225
3559.24,0.9222
3561.69,0.9219
3564.14,0.9212
3566.59,0.9203
3569.04,0.9203
3571.5,0.9196
3573.96,0.9182
3576.42,0.9173
3578.89,0.9173
3581.36,0.9173
3583.84,0.9169
3586.32,0.9164
3588.8,0.9157
3591.28,0.9145
3593.77,0.9137
3596.26,0.9132
3598.76,0.9128
3601.26,0.9125
3603.76,0.9125
3606.27,0.9117
3608.78,0.9107
3611.29,0.9102
3613.81,0.9093
3616.33,0.9083
3618.85,0.9085
3621.38,0.9082
3623.91,0.9071
3626.44,0.9067
3628.98,0.9063
3631.52,0.9052
3634.06,0.9051
3636.61,0.9048
3639.16,0.904
3641.72,0.9032
3644.28,0.9028
3646.84,0.9019
3649.41,0.902
3651.98,0.9019
3654.55,0.9009
3657.13,0.9001
3659.71,0.8998
3662.29,0.8991
3664.88,0.8984
3667.47,0.8981
3670.07,0.8977
3672.67,0.8967
3675.27,0.8959
3677.88,0.8956
3680.49,0.8958
3683.1,0.8955
3685.72,0.895
3688.34,0.8941
3690.96,0.8935
3693.59,0.8926
3696.23,0.8923
3698.86,0.8923
3701.5,0.8924
3704.15,0.8922
3706.79,0.8916
3709.44,0.891
3712.1,0.8908
3714.76,0.8902
3717.42,0.8896
3720.09,0.8892
3722.76,0.8891
3725.43,0.8889
3728.11,0.8889
3730.79,0.8884
3733.48,0.8878
3736.17,0.8875
3738.86,0.8873
3741.56,0.8865
3744.26,0.886
3746.97,0.8853
3749.67,0.8854
3752.39,0.8855
3755.1,0.8851
3757.83,0.8846
3760.55,0.8851
3763.28,0.8853
3766.01,0.8848
3768.75,0.8846
3771.49,0.8848
3774.23,0.8845
3776.98,0.8843
3779.74,0.8841
3782.49,0.8842
3785.25,0.8843
3788.02,0.8841
3790.79,0.884
3793.56,0.8842
3796.34,0.8839
3799.12,0.8836
3801.9,0.8831
3804.69,0.8834
3807.48,0.8835
3810.28,0.8839
3813.08,0.8837
3815.89,0.8834
3818.7,0.8828
3821.51,0.8824
3824.33,0.8821
3827.15,0.8828
3829.98,0.8835
3832.81,0.883
3835.64,0.8826
3838.48,0.8831
3841.33,0.8838
3844.17,0.8837
3847.03,0.8835
3849.88,0.8841
3852.74,0.8843
3855.61,0.8845
3858.47,0.885
3861.35,0.8854
3864.22,0.886
3867.11,0.8876
3869.99,0.8885
3872.88,0.8889
3875.78,0.8889
3878.67,0.8883
3881.58,0.8872
3884.48,0.8872
3887.4,0.8878
3890.31,0.8876
3893.23,0.8872
3896.16,0.8875
3899.09,0.8881
3902.02,0.8886
3904.96,0.8889
3907.9,0.8894
3910.85,0.8889
3913.8,0.8893
3916.76,0.8906
3919.72,0.8912
3922.68,0.8913
3925.65,0.8916
3928.62,0.8919
3931.6,0.8925
3934.58,0.8931
3937.57,0.8939
3940.56,0.8946
3943.56,0.8949
3946.56,0.8956
3949.57,0.8968
3952.58,0.8968
3955.59,0.8978
3958.61,0.899
3961.63,0.8998
3964.66,0.9007
3967.7,0.9017
3970.73,0.9022
3973.78,0.9029
3976.82,0.9032
3979.88,0.9026
3982.93,0.9022
3985.99,0.9031
3989.06,0.9037
3992.13,0.9035
3995.21,0.9033
3998.29,0.9042
4001.37,0.905
4004.46,0.9053
4007.55,0.9057
4010.65,0.9062
4013.76,0.9062
4016.87,0.9071
4019.98,0.9083
4023.1,0.9088
4026.22,0.9092
4029.35,0.9096
4032.48,0.9098
4035.62,0.9105
4038.76,0.9111
4041.91,0.9118
4045.06,0.913
4048.22,0.9138
4051.38,0.9146
4054.55,0.9153
4057.72,0.9154
4060.9,0.9161
4064.08,0.9169
4067.27,0.9176
4070.46,0.9183
4073.66,0.9191
4076.86,0.9195
4080.07,0.9201
4083.28,0.9208
4086.5,0.9214
4089.72,0.9222
4092.95,0.9229
4096.18,0.9233
4099.42,0.9241
4102.66,0.9247
4105.91,0.9255
4109.16,0.9266
4112.42,0.9273
4115.69,0.9272
4118.96,0.9276
4122.23,0.9285
4125.51,0.9288
4128.79,0.9291
4132.08,0.9299
4135.38,0.931
4138.68,0.9318
4141.98,0.9318
4145.29,0.9324
4148.61,0.9332
4151.93,0.9339
4155.26,0.9345
4158.59,0.935
4161.93,0.9355
4165.27,0.9362
4168.62,0.9375
4171.97,0.9381
4175.33,0.939
4178.69,0.9395
4182.06,0.9396
4185.44,0.9405
4188.82,0.9412
4192.21,0.9417
4195.6,0.9424
4198.99,0.9431
4202.4,0.9435
4205.8,0.9445
4209.22,0.9449
4212.64,0.945
4216.06,0.9457
4219.49,0.9466
4222.93,0.947
4226.37,0.9472
4229.82,0.9482
4233.27,0.949
4236.73,0.9494
4240.19,0.9502
4243.66,0.951
4247.14,0.9513
4250.62,0.9524
4254.1,0.9535
4257.6,0.954
4261.09,0.9547
4264.6,0.9552
4268.11,0.9557
4271.62,0.9565
4275.14,0.9575
4278.67,0.9586
4282.2,0.9592
4285.74,0.9592
4289.29,0.9599
4292.84,0.9603
4296.4,0.9604
4299.96,0.9612
4303.53,0.962
4307.1,0.9624
4310.68,0.963
4314.27,0.9634
4317.86,0.9639
4321.46,0.9646
4325.06,0.9652
4328.67,0.9659
4332.29,0.9666
4335.91,0.9669
4339.54,0.9671
4343.17,0.9672
4346.81,0.9675
4350.46,0.9678
4354.11,0.9681
4357.77,0.9685
4361.43,0.969
4365.1,0.9692
4368.78,0.9692
4372.46,0.9692
4376.15,0.9695
4379.85,0.9699
4383.55,0.9702
4387.26,0.9704
4390.97,0.9709
4394.69,0.9713
4398.42,0.9709
4402.16,0.9707
4405.9,0.9709
4409.64,0.9714
4413.39,0.9718
4417.15,0.9721
4420.92,0.9725
4424.69,0.9727
4428.47,0.9725
4432.25,0.9726
4436.04,0.9731
4439.84,0.973
4443.65,0.9734
4447.46,0.9738
4451.27,0.9738
4455.1,0.9738
4458.93,0.974
4462.77,0.9738
4466.61,0.9737
4470.46,0.9738
4474.32,0.9737
4478.18,0.9738
4482.05,0.974
4485.93,0.9737
4489.81,0.9735
4493.7,0.9738
4497.6,0.9738
4501.5,0.9736
4505.41,0.9735
4509.33,0.9735
4513.25,0.9735
4517.18,0.9734
4521.12,0.9734
4525.07,0.9733
4529.02,0.9732
4532.98,0.9732
4536.94,0.9734
4540.92,0.9732
4544.9,0.9732
4548.88,0.9732
4552.88,0.9726
4556.88,0.972
4560.88,0.9716
4564.9,0.9714
4568.92,0.9715
4572.95,0.9713
4576.98,0.9709
4581.03,0.9705
4585.08,0.9707
4589.13,0.9703
4593.2,0.9697
4597.27,0.9696
4601.35,0.9696
4605.44,0.9694
4609.53,0.9692
4613.63,0.969
4617.74,0.9688
4621.85,0.9689
4625.97,0.9687
4630.1,0.9686
4634.24,0.9692
4638.39,0.9694
4642.54,0.9694
4646.7,0.9697
4650.87,0.97
4655.04,0.9703
4659.22,0.9705
4663.41,0.9705
4667.61,0.9706
4671.81,0.9708
4676.03,0.9713
4680.25,0.9719
4684.47,0.9719
4688.71,0.9714
4692.95,0.9714
4697.2,0.9714
4701.46,0.9713
4705.73,0.9711
4710.0,0.9707
4714.28,0.9702
4718.57,0.97
4722.87,0.9701
4727.17,0.9702
4731.49,0.9696
4735.81,0.9689
4740.13,0.9682
4744.47,0.9676
4748.82,0.9666
4753.17,0.9651
4757.53,0.9638
4761.9,0.9631
4766.27,0.9623
4770.66,0.9611
4775.05,0.9599
4779.45,0.9592
4783.86,0.9585
4788.28,0.9575
4792.7,0.9564
4797.13,0.9559
4801.58,0.9554
4806.03,0.9547
4810.48,0.9542
4814.95,0.9537
4819.42,0.9533
4823.91,0.9532
4828.4,0.9529
4832.9,0.9524
4837.4,0.9519
4841.92,0.952
4846.45,0.9519
4850.98,0.9517
4855.52,0.9514
4860.07,0.9508
4864.63,0.9505
4869.2,0.9501
4873.77,0.95
4878.36,0.9497
4882.95,0.9492
4887.55,0.9491
4892.16,0.9489
4896.78,0.9487
4901.41,0.9487
4906.05,0.9486
4910.69,0.9483
4915.35,0.948
4920.01,0.9477
4924.68,0.9475
4929.36,0.9477
4934.05,0.9478
4938.75,0.9476
4943.46,0.9473
4948.18,0.9472
4952.9,0.9471
4957.64,0.9471
4962.38,0.9473
4967.13,0.9472
4971.89,0.9471
4976.67,0.9469
4981.45,0.9466
4986.23,0.9465
4991.03,0.9461
4995.84,0.9455
5000.66,0.9452
5005.49,0.9449
5010.32,0.945
5015.17,0.9453
5020.02,0.9452
5024.88,0.945
5029.76,0.9444
5034.64,0.9441
5039.53,0.944
5044.43,0.9439
5049.35,0.9437
5054.27,0.9436
5059.2,0.9437
5064.14,0.9435
5069.09,0.943
5074.05,0.9431
5079.02,0.943
5084.0,0.9426
5088.98,0.9426
5093.98,0.9425
5098.99,0.942
5104.01,0.9417
5109.04,0.9417
5114.08,0.9416
5119.12,0.9413
5124.18,0.941
5129.25,0.9412
5134.33,0.9411
5139.42,0.9406
5144.51,0.9401
5149.62,0.9399
5154.74,0.9399
5159.87,0.94
5165.01,0.9402
5170.16,0.9398
5175.32,0.9395
5180.49,0.9394
5185.67,0.9393
5190.86,0.9392
5196.06,0.9391
5201.27,0.9391
5206.49,0.939
5211.72,0.9392
5216.96,0.9395
5222.22,0.9395
5227.48,0.9397
5232.76,0.9394
5238.04,0.9394
5243.34,0.9397
5248.64,0.9397
5253.96,0.9399
5259.29,0.9402
5264.63,0.9404
5269.98,0.9406
5275.34,0.9409
5280.71,0.9412
5286.09,0.9414
5291.49,0.9416
5296.89,0.9417
5302.31,0.9418
5307.73,0.9421
5313.17,0.9428
5318.62,0.9429
5324.08,0.943
5329.55,0.943
5335.03,0.9432
5340.53,0.9433
5346.03,0.9435
5351.55,0.9441
5357.08,0.9444
5362.62,0.9442
5368.17,0.9444
5373.73,0.9444
5379.3,0.9443
5384.89,0.9443
5390.49,0.9441
5396.09,0.9443
5401.71,0.9446
5407.35,0.9448
5412.99,0.9448
5418.65,0.945
5424.31,0.9452
5429.99,0.9453
5435.68,0.9456
5441.39,0.9457
5447.1,0.9459
5452.83,0.9463
5458.57,0.9467
5464.32,0.9469
5470.08,0.9474
5475.86,0.9479
5481.65,0.9482
5487.45,0.9485
5493.26,0.9492
5499.08,0.9495
5504.92,0.9499
5510.77,0.9501
5516.63,0.9507
5522.51,0.951
5528.39,0.9515
5534.29,0.9521
5540.21,0.9525
5546.13,0.9531
5552.07,0.9534
5558.02,0.9535
5563.98,0.9541
5569.96,0.9547
5575.95,0.9551
5581.95,0.9552
5587.96,0.9558
5593.99,0.9563
5600.03,0.9566
5606.08,0.9566
5612.15,0.9568
5618.23,0.9573
5624.32,0.9579
5630.43,0.9585
5636.55,0.959
5642.68,0.9593
5648.83,0.9598
5654.99,0.9601
5661.16,0.9604
5667.35,0.961
5673.55,0.9618
5679.76,0.9626
5685.99,0.963
5692.23,0.9631
5698.48,0.9637
5704.75,0.9644
5711.03,0.9648
5717.33,0.9654
5723.64,0.9662
5729.96,0.9669
5736.3,0.9677
5742.65,0.9681
5749.02,0.9687
5755.4,0.9695
5761.79,0.9702
5768.2,0.9709
5774.62,0.9715
5781.06,0.9719
5787.51,0.9725
5793.98,0.9733
5800.46,0.9743
5806.95,0.975
5813.46,0.9755
5819.98,0.9764
5826.52,0.9775
5833.08,0.978
5839.64,0.9785
5846.23,0.9797
5852.83,0.9808
5859.44,0.9812
5866.07,0.9818
5872.71,0.9822
5879.37,0.9828
5886.04,0.9834
5892.73,0.9842
5899.43,0.9847
5906.15,0.985
5912.88,0.9854
5919.63,0.9856
5926.4,0.9851
5933.18,0.9852
5939.97,0.9851
5946.78,0.9851
5953.61,0.985
5960.45,0.9851
5967.31,0.9851
5974.18,0.9854
5981.07,0.9856
5987.98,0.9853
5994.9,0.9851
6001.84,0.9854
6008.79,0.9852
6015.76,0.9851
6022.75,0.9854
6029.75,0.9858
6036.77,0.9857
6043.81,0.9856
6050.86,0.9858
6057.93,0.9859
6065.01,0.986
6072.11,0.9861
6079.23,0.9864
6086.36,0.9867
6093.51,0.9866
6100.68,0.9866
6107.87,0.9866
6115.07,0.9863
6122.29,0.986
6129.52,0.9853
6136.78,0.984
6144.05,0.9823
6151.34,0.9808
6158.64,0.9805
6165.96,0.9805
6173.3,0.9807
6180.66,0.9811
6188.03,0.9821
6195.43,0.9824
6202.84,0.9826
6210.26,0.9829
6217.71,0.9829
6225.17,0.9824
6232.65,0.9821
6240.15,0.9817
6247.67,0.9814
6255.21,0.9809
6262.76,0.9805
6270.33,0.9804
6277.92,0.9801
6285.53,0.9797
6293.16,0.9794
6300.8,0.979
6308.47,0.9786
6316.15,0.9781
6323.85,0.978
6331.57,0.9777
6339.31,0.9776
6347.07,0.9771
6354.85,0.9771
6362.65,0.9769
6370.46,0.9766
6378.3,0.9759
6386.15,0.9757
6394.02,0.9756
6401.92,0.9757
6409.83,0.9757
6417.76,0.9755
6425.71,0.9753
6433.68,0.9755
6441.67,0.9754
6449.69,0.9749
6457.72,0.9745
6465.77,0.9747
6473.84,0.9748
6481.93,0.9747
6490.04,0.9746
6498.17,0.9746
6506.33,0.9746
6514.5,0.9744
6522.69,0.9743
6530.91,0.9743
6539.14,0.9744
6547.4,0.9745
6555.67,0.9741
6563.97,0.9738
6572.29,0.9736
6580.63,0.9735
6588.99,0.9735
6597.37,0.9741
6605.77,0.9742
6614.2,0.9738
6622.65,0.9735
6631.11,0.9736
6639.6,0.9735
6648.11,0.9738
6656.65,0.974
6665.2,0.9738
6673.78,0.9737
6682.38,0.9736
6691.0,0.9734
6699.64,0.9735
6708.31,0.9738
6717.0,0.9745
6725.71,0.9746
6734.44,0.9745
6743.2,0.9744
6751.98,0.9749
6760.78,0.9751
6769.61,0.9747
6778.45,0.9745
6787.32,0.9753
6796.22,0.9756
6805.14,0.9756
6814.08,0.9753
6823.04,0.9755
6832.03,0.9762
6841.04,0.9766
6850.08,0.9766
6859.14,0.977
6868.22,0.9773
6877.33,0.9772
6886.46,0.9766
6895.62,0.9771
6904.8,0.9777
6914.01,0.9778
6923.24,0.9779
6932.49,0.9783
6941.77,0.9782
6951.07,0.9787
6960.4,0.9788
6969.76,0.9785
6979.14,0.9785
6988.54,0.9785
6997.97,0.9782
7007.43,0.9786
7016.91,0.979
7026.41,0.9794
7035.95,0.9795
7045.51,0.9796
7055.09,0.9792
7064.7,0.9794
7074.34,0.9793
7084.0,0.9797
7093.69,0.9802
7103.41,0.9804
7113.15,0.9802
7122.92,0.9804
7132.71,0.98
7142.54,0.9801
7152.39,0.9809
7162.27,0.9815
7172.17,0.9812
7182.1,0.9813
7192.06,0.9815
7202.05,0.9821
7212.07,0.9824
7222.11,0.9822
7232.18,0.9819
7242.28,0.9823
7252.41,0.9827
7262.57,0.9827
7272.75,0.9824
7282.96,0.9828
7293.21,0.9829
7303.48,0.9833
7313.78,0.9834
7324.1,0.9839
7334.46,0.9839
7344.85,0.984
7355.27,0.9845
7365.71,0.9848
7376.19,0.9847
7386.7,0.9846
7397.23,0.9846
7407.8,0.9851
7418.39,0.9854
7429.02,0.9853
7439.68,0.9856
7450.37,0.9859
7461.08,0.9855
7471.83,0.9855
7482.61,0.9855
7493.43,0.9859
7504.27,0.9864
7515.14,0.9866
7526.05,0.9864
7536.99,0.9862
7547.96,0.9861
7558.96,0.9863
7569.99,0.9863
7581.06,0.9864
7592.15,0.9866
7603.28,0.9867
7614.45,0.9867
7625.64,0.9872
7636.87,0.987
7648.14,0.9868
7659.43,0.9872
7670.76,0.9878
7682.12,0.9874
7693.52,0.9872
7704.95,0.9869
7716.41,0.9869
7727.91,0.9872
7739.44,0.9878
7751.01,0.9879
7762.61,0.9877
7774.25,0.9875
7785.92,0.9878
7797.63,0.9878
7809.37,0.9882
7821.15,0.9879
7832.96,0.9875
7844.81,0.9869
7856.69,0.9866
7868.61,0.9866
7880.57,0.9871
7892.56,0.9868
7904.59,0.9867
7916.66,0.9867
7928.76,0.9864
7940.9,0.9862
7953.08,0.986
7965.29,0.9855
7977.55,0.9858
7989.84,0.9853
8002.17,0.985
8014.53,0.9847
8026.94,0.9844
8039.38,0.9834
8051.86,0.9823
8064.38,0.9815
8076.94,0.9812
8089.54,0.9804
8102.18,0.9797
8114.86,0.9788
8127.57,0.9777
8140.33,0.9761
8153.13,0.9751
8165.96,0.9738
8178.84,0.9724
8191.76,0.9702
8204.72,0.9676
8217.72,0.9643
8230.76,0.9617
8243.85,0.9586
8256.97,0.9561
8270.14,0.9533
8283.35,0.9497
8296.6,0.9463
8309.89,0.9436
8323.23,0.9409
8336.61,0.9383
8350.03,0.9348
8363.5,0.932
8377.01,0.929
8390.56,0.9261
8404.16,0.9218
8417.8,0.9175
8431.48,0.9131
8445.21,0.909
8458.99,0.9048
8472.81,0.9006
8486.67,0.8957
8500.58,0.8907
8514.54,0.8851
8528.54,0.8808
8542.59,0.8782
8556.68,0.8772
8570.83,0.8766
8585.01,0.877
8599.25,0.8768
8613.53,0.8763
8627.86,0.8762
8642.24,0.8763
8656.66,0.8759
8671.14,0.8765
8685.66,0.8769
8700.23,0.8772
8714.85,0.8775
8729.52,0.8794
8744.24,0.8815
8759.01,0.8836
8773.83,0.886
8788.69,0.8884
8803.61,0.8898
8818.58,0.8918
8833.6,0.8938
8848.68,0.8969
8863.8,0.8999
8878.97,0.9033
8894.2,0.9074
8909.48,0.911
8924.81,0.9144
8940.2,0.9183
8955.64,0.9217
8971.13,0.9267
8986.67,0.9311
9002.27,0.9358
9017.93,0.9396
9033.64,0.943
9049.4,0.9456
9065.22,0.9485
9081.09,0.9506
9097.02,0.9519
9113.0,0.953
9129.04,0.9549
9145.14,0.9564
9161.3,0.9574
9177.51,0.9576
9193.78,0.9589
9210.11,0.9596
9226.49,0.9612
9242.94,0.9622
9259.44,0.9626
9276.0,0.9625
9292.62,0.9632
9309.3,0.9634
9326.04,0.9644
9342.84,0.9648
9359.7,0.9659
9376.63,0.9657
9393.61,0.9654
9410.66,0.9661
9427.76,0.9673
9444.93,0.9675
9462.17,0.9671
9479.46,0.967
9496.82,0.9685
9514.24,0.9683
9531.73,0.9682
9549.28,0.9684
9566.89,0.9693
9584.58,0.9702
9602.32,0.9705
9620.13,0.9694
9638.01,0.9699
9655.96,0.9702
9673.97,0.9705
9692.05,0.9706
9710.19,0.9714
9728.41,0.9716
9746.69,0.9717
9765.04,0.9714
9783.47,0.9723
9801.96,0.9722
9820.52,0.9725
9839.15,0.973
9857.85,0.9741
9876.62,0.9738
9895.47,0.974
9914.39,0.9742
9933.38,0.9746
9952.44,0.9744
9971.58,0.975
9990.78,0.9743
10010.07,0.974
10029.43,0.9741
10048.86,0.9746
10068.37,0.975
10087.95,0.9752
10107.61,0.9751
10127.35,0.9755
10147.17,0.9757
10167.06,0.9759
10187.03,0.9758
10207.08,0.9764
10227.21,0.9758
10247.42,0.976
10267.71,0.9763
10288.07,0.9768
10308.52,0.9761
10329.06,0.9764
10349.67,0.9764
10370.36,0.9767
10391.14,0.9764
10412.0,0.9771
10432.95,0.9777
10453.98,0.9781
10475.1,0.9778
10496.3,0.9775
10517.58,0.9772
10538.96,0.9781
10560.42,0.9783
10582.0,0.978
10603.6,0.9779
10625.3,0.9782
10647.1,0.9781
10669.0,0.9785
10691.0,0.9781
10713.1,0.9786
10735.3,0.9789
10757.6,0.9794
10779.9,0.9792
10802.4,0.9789
10824.9,0.9788
10847.6,0.979
10870.3,0.979
10893.1,0.9797
10916.1,0.979
10939.1,0.9787
10962.2,0.9788
10985.4,0.9794
11008.7,0.9796
11032.2,0.9797
11055.7,0.9792
11079.3,0.9796
11103.0,0.9792
11126.9,0.9798
11150.8,0.9795
11174.8,0.9797
11198.9,0.9795
11223.2,0.9804
11247.5,0.9802
11271.9,0.98
11296.5,0.9802
11321.2,0.9807
11345.9,0.9808
11370.8,0.981
11395.8,0.9805
11420.9,0.9808
11446.1,0.9804
11471.4,0.9806
11496.8,0.9807
11522.4,0.981
11548.0,0.9808
11573.8,0.9813
11599.7,0.9811
11625.7,0.9817
11651.8,0.9817
11678.1,0.9816
11704.4,0.9813
11730.9,0.9822
11757.5,0.9819
11784.2,0.9812
11811.0,0.9814
11838.0,0.9827
11865.1,0.9822
11892.3,0.9823
11919.6,0.9823
11947.1,0.9826
11974.7,0.9826
12002.4,0.9831
12030.2,0.9824
12058.2,0.9829
12086.3,0.9832
12114.5,0.9833
12142.9,0.9835
12171.4,0.9836
12200.0,0.9832
12228.8,0.9836
12257.7,0.9837
12286.7,0.9842
12315.9,0.9843
12345.2,0.9847
12374.7,0.9836
12404.3,0.9837
12434.0,0.9837
12463.9,0.9841
12493.9,0.9845
12524.1,0.9849
12554.4,0.984
12584.9,0.984
12615.5,0.9844
12646.3,0.9853
12677.2,0.9853
12708.2,0.9852
12739.5,0.9852
12770.8,0.9854
12802.4,0.985
12834.0,0.9852
12865.9,0.9842
12897.9,0.9846
12930.0,0.9848
12962.3,0.9856
12994.8,0.9856
13027.5,0.9856
13060.3,0.9855
13093.3,0.9864
13126.4,0.9865
13159.7,0.9864
13193.2,0.9859
13226.8,0.9861
13260.6,0.9858
13294.6,0.9859
13328.8,0.9859
13363.2,0.9868
13397.7,0.9863
13432.4,0.9864
13467.2,0.9864
13502.3,0.9868
13537.6,0.9863
13573.0,0.9871
13608.6,0.987
13644.4,0.9879
13680.4,0.9869
13716.6,0.9866
13753.0,0.9864
13789.5,0.9873
13826.3,0.9871
13863.3,0.9878
13900.4,0.9882
13937.8,0.9883
13975.3,0.9876
14013.1,0.989
14051.1,0.9868
14089.2,0.9858
14127.6,0.9875
14166.2,0.9879
14205.0,0.9856
14244.0,0.9869
14283.2,0.9856
14322.7,0.9865
14362.4,0.9837
14402.2,0.981
14442.3,0.9772
14482.7,0.9775
14523.2,0.9771
14564.0,0.9777
14605.0,0.9696
14646.3,0.971
14687.8,0.9659
14729.5,0.9638
14771.4,0.9591
14813.6,0.9622
14856.0,0.9586
14898.7,0.9623
14941.7,0.9675
14984.8,0.9852
15028.3,0.9807
15071.9,0.9799
15115.9,0.9831
15160.0,0.9908
