Database of Origin,University of Winnipeg Spectrophotometer Facility
Sample Description,16.6. Meteorites - Carbonaceous chondrites 16.6.3. Samples from Pierre Hudon (JSC) - April 2004 (b) RELAB + Nicolet merged spectra
Date Added,2018-07-23 23:44:29.269382

Data ID,RLA_MET_27_5        
Sample ID,QUE97077
Mineral Name,Carbonaceous Chondrite
Grain Size,<75
Viewing Geometry,30/0/30
Resolution,5/0.3-475
Material Class,CM2

Wavelength
305.0,0.02342
310.0,0.02416
315.0,0.02414
320.0,0.024
325.0,0.02445
330.0,0.02449
335.0,0.02528
340.0,0.02621
345.0,0.02717
350.0,0.02773
355.0,0.02878
360.0,0.02928
365.0,0.02996
370.0,0.03073
375.0,0.03179
380.0,0.0325
385.0,0.03333
390.0,0.03433
395.0,0.03524
400.0,0.03567
405.0,0.03639
410.0,0.03701
415.0,0.03789
420.0,0.03864
425.0,0.03949
430.0,0.04019
435.0,0.04094
440.0,0.04158
445.0,0.04217
450.0,0.04271
455.0,0.04318
460.0,0.04363
465.0,0.0442
470.0,0.04467
475.0,0.04526
480.0,0.04585
485.0,0.04637
490.0,0.0469
495.0,0.04739
500.0,0.04775
505.0,0.04833
510.0,0.04877
515.0,0.04916
520.0,0.04954
525.0,0.04975
530.0,0.05014
535.0,0.05039
540.0,0.05066
545.0,0.05082
550.0,0.05104
555.0,0.05114
560.0,0.05126
565.0,0.05133
570.0,0.05137
575.0,0.05139
580.0,0.05139
585.0,0.05137
590.0,0.05132
595.0,0.05127
600.0,0.05126
605.0,0.05126
610.0,0.05118
615.0,0.05113
620.0,0.05111
625.0,0.05105
630.0,0.05094
635.0,0.05092
640.0,0.05078
645.0,0.05073
650.0,0.05064
655.0,0.05054
660.0,0.05041
665.0,0.05031
670.0,0.05021
675.0,0.05013
680.0,0.05005
685.0,0.04994
690.0,0.0499
695.0,0.04982
700.0,0.04986
705.0,0.04982
710.0,0.04983
715.0,0.04985
720.0,0.04984
725.0,0.04971
730.0,0.04978
735.0,0.04979
740.0,0.04987
745.0,0.04991
750.0,0.05001
755.0,0.05015
760.0,0.05027
765.0,0.05039
770.0,0.05053
775.0,0.05067
780.0,0.05079
785.0,0.05102
790.0,0.05115
795.0,0.05139
800.0,0.05169
805.0,0.05186
810.0,0.05197
815.0,0.05208
820.0,0.05218
825.0,0.0523
830.0,0.05253
835.0,0.05265
840.0,0.05283
845.0,0.05292
850.0,0.05307
855.0,0.05297
860.0,0.05303
865.0,0.05314
870.0,0.05318
875.0,0.05312
880.0,0.05319
885.0,0.05319
890.0,0.05318
895.0,0.0532
900.0,0.0533
905.0,0.05334
910.0,0.0534
915.0,0.05347
920.0,0.05353
925.0,0.05363
930.0,0.05366
935.0,0.05373
940.0,0.05381
945.0,0.0539
950.0,0.05397
955.0,0.05409
960.0,0.05421
965.0,0.05432
970.0,0.05441
975.0,0.0545
980.0,0.05464
985.0,0.05471
990.0,0.05485
995.0,0.05498
1000.0,0.0551
1005.0,0.05517
1010.0,0.05527
1015.0,0.05535
1020.0,0.0554
1025.0,0.05542
1030.0,0.05552
1035.0,0.05567
1040.0,0.05574
1045.0,0.05581
1050.0,0.05587
1055.0,0.05591
1060.0,0.05593
1065.0,0.05598
1070.0,0.05606
1075.0,0.05613
1080.0,0.05622
1085.0,0.05628
1090.0,0.05628
1095.0,0.05636
1100.0,0.05646
1105.0,0.05644
1110.0,0.05647
1115.0,0.05655
1120.0,0.05657
1125.0,0.05662
1130.0,0.05676
1135.0,0.05684
1140.0,0.05694
1145.0,0.05704
1150.0,0.05712
1155.0,0.05721
1160.0,0.05737
1165.0,0.05749
1170.0,0.05761
1175.0,0.05772
1180.0,0.05786
1185.0,0.05795
1190.0,0.05806
1195.0,0.05816
1200.0,0.05828
1205.0,0.05839
1210.0,0.05856
1215.0,0.05867
1220.0,0.0588
1225.0,0.05893
1230.0,0.05901
1235.0,0.05908
1240.0,0.05919
1245.0,0.05928
1250.0,0.05941
1255.0,0.0595
1260.0,0.05955
1265.0,0.05971
1270.0,0.05982
1275.0,0.05991
1280.0,0.06
1285.0,0.06018
1290.0,0.06028
1295.0,0.06039
1300.0,0.0605
1305.0,0.06065
1310.0,0.06076
1315.0,0.06089
1320.0,0.06103
1325.0,0.06114
1330.0,0.06127
1335.0,0.06137
1340.0,0.06149
1345.0,0.06154
1350.0,0.0616
1350.7,0.06163
1351.0,0.06166
1351.3,0.06161
1351.7,0.0616
1352.1,0.06164
1352.4,0.06166
1352.8,0.06171
1353.1,0.06175
1353.5,0.06173
1353.8,0.06165
1354.2,0.06166
1354.5,0.06172
1354.9,0.06174
1355.2,0.06179
1355.6,0.06183
1355.9,0.0618
1356.3,0.06179
1356.7,0.0618
1357.0,0.06176
1357.4,0.0618
1357.7,0.06187
1358.1,0.06184
1358.4,0.06176
1358.8,0.06173
1359.2,0.06173
1359.5,0.06178
1359.9,0.06187
1360.2,0.0619
1360.6,0.06189
1360.9,0.06188
1361.3,0.06186
1361.7,0.06192
1362.0,0.06195
1362.4,0.06194
1362.7,0.06196
1363.1,0.06201
1363.4,0.06202
1363.8,0.06197
1364.2,0.06197
1364.5,0.06199
1364.9,0.06204
1365.2,0.06207
1365.6,0.06208
1365.9,0.062
1366.3,0.062
1366.7,0.06209
1367.0,0.0621
1367.4,0.06205
1367.8,0.06207
1368.1,0.06209
1368.5,0.06207
1368.8,0.06201
1369.2,0.06201
1369.6,0.06206
1369.9,0.06207
1370.3,0.0621
1370.7,0.06214
1371.0,0.06216
1371.4,0.06218
1371.7,0.06223
1372.1,0.06221
1372.5,0.06223
1372.8,0.06225
1373.2,0.06224
1373.6,0.0622
1373.9,0.06222
1374.3,0.06224
1374.6,0.06219
1375.0,0.06214
1375.4,0.06215
1375.7,0.06226
1376.1,0.06229
1376.5,0.06228
1376.8,0.06227
1377.2,0.06226
1377.6,0.06225
1377.9,0.06225
1378.3,0.06224
1378.7,0.06231
1379.0,0.06238
1379.4,0.06234
1379.8,0.06229
1380.1,0.06227
1380.5,0.06233
1380.9,0.06234
1381.2,0.06234
1381.6,0.06236
1382.0,0.06237
1382.3,0.06237
1382.7,0.0624
1383.1,0.06239
1383.4,0.06235
1383.8,0.06239
1384.2,0.06245
1384.6,0.06245
1384.9,0.06245
1385.3,0.06242
1385.7,0.06243
1386.0,0.06247
1386.4,0.06246
1386.8,0.06246
1387.2,0.06251
1387.5,0.06254
1387.9,0.06253
1388.3,0.06252
1388.6,0.0625
1389.0,0.06253
1389.4,0.06255
1389.8,0.06256
1390.1,0.06254
1390.5,0.06252
1390.9,0.06251
1391.2,0.06251
1391.6,0.06257
1392.0,0.06256
1392.4,0.06256
1392.7,0.06259
1393.1,0.06258
1393.5,0.06257
1393.9,0.06257
1394.2,0.06257
1394.6,0.0626
1395.0,0.06261
1395.4,0.0626
1395.7,0.06264
1396.1,0.06272
1396.5,0.06273
1396.9,0.06271
1397.2,0.06267
1397.6,0.06263
1398.0,0.06268
1398.4,0.06276
1398.8,0.06278
1399.1,0.06277
1399.5,0.06276
1399.9,0.06276
1400.3,0.06275
1400.6,0.06273
1401.0,0.06272
1401.4,0.06274
1401.8,0.06277
1402.2,0.06272
1402.5,0.06271
1402.9,0.06274
1403.3,0.06279
1403.7,0.06283
1404.1,0.06283
1404.4,0.06286
1404.8,0.06288
1405.2,0.06285
1405.6,0.06287
1406.0,0.06293
1406.3,0.06295
1406.7,0.06292
1407.1,0.06288
1407.5,0.06292
1407.9,0.06298
1408.3,0.063
1408.6,0.06298
1409.0,0.06293
1409.4,0.06291
1409.8,0.06293
1410.2,0.06297
1410.6,0.06299
1410.9,0.06299
1411.3,0.06302
1411.7,0.06302
1412.1,0.06302
1412.5,0.06301
1412.8,0.06302
1413.2,0.06304
1413.6,0.063
1414.0,0.06297
1414.4,0.06303
1414.8,0.06308
1415.2,0.06308
1415.6,0.06308
1415.9,0.06308
1416.3,0.0631
1416.7,0.0631
1417.1,0.06309
1417.5,0.06309
1417.9,0.06313
1418.3,0.06315
1418.7,0.06312
1419.0,0.06313
1419.4,0.06318
1419.8,0.06318
1420.2,0.06317
1420.6,0.06319
1421.0,0.06321
1421.4,0.06324
1421.8,0.06322
1422.2,0.06322
1422.5,0.06321
1422.9,0.06322
1423.3,0.06321
1423.7,0.0632
1424.1,0.06326
1424.5,0.06326
1424.9,0.06322
1425.3,0.06321
1425.7,0.06327
1426.1,0.06333
1426.5,0.06333
1426.8,0.06337
1427.2,0.06343
1427.6,0.06341
1428.0,0.06337
1428.4,0.06332
1428.8,0.06333
1429.2,0.06338
1429.6,0.0634
1430.0,0.06338
1430.4,0.06338
1430.8,0.06343
1431.2,0.06348
1431.6,0.06345
1432.0,0.06346
1432.4,0.0635
1432.8,0.06349
1433.2,0.06344
1433.6,0.06348
1433.9,0.06354
1434.3,0.06352
1434.8,0.0635
1435.1,0.06359
1435.5,0.06365
1435.9,0.06362
1436.3,0.0636
1436.7,0.06355
1437.1,0.06356
1437.5,0.06361
1437.9,0.06363
1438.3,0.06362
1438.7,0.06364
1439.1,0.06366
1439.5,0.06366
1439.9,0.06364
1440.3,0.06364
1440.7,0.06369
1441.1,0.06369
1441.5,0.06365
1441.9,0.06365
1442.3,0.06367
1442.7,0.06368
1443.1,0.06368
1443.5,0.06371
1443.9,0.06372
1444.3,0.06372
1444.7,0.06374
1445.1,0.06375
1445.6,0.06376
1445.9,0.0638
1446.3,0.06383
1446.8,0.06381
1447.2,0.06378
1447.6,0.06383
1448.0,0.06387
1448.4,0.06385
1448.8,0.06385
1449.2,0.06387
1449.6,0.06386
1450.0,0.06388
1450.4,0.06388
1450.8,0.06385
1451.2,0.06387
1451.6,0.06391
1452.0,0.0639
1452.4,0.06386
1452.8,0.06388
1453.2,0.06393
1453.7,0.06397
1454.1,0.06401
1454.5,0.06402
1454.9,0.064
1455.3,0.06403
1455.7,0.06408
1456.1,0.06405
1456.5,0.06402
1456.9,0.06397
1457.3,0.06399
1457.7,0.06404
1458.2,0.06406
1458.6,0.06407
1459.0,0.06406
1459.4,0.06406
1459.8,0.06407
1460.2,0.06411
1460.6,0.06412
1461.0,0.06413
1461.4,0.06416
1461.8,0.06417
1462.3,0.06419
1462.7,0.06417
1463.1,0.0642
1463.5,0.06422
1463.9,0.06423
1464.3,0.06423
1464.7,0.0642
1465.2,0.06414
1465.6,0.06415
1466.0,0.06422
1466.4,0.06426
1466.8,0.06427
1467.2,0.06425
1467.6,0.06423
1468.1,0.06425
1468.5,0.06427
1468.9,0.06424
1469.3,0.06428
1469.7,0.06435
1470.1,0.06437
1470.6,0.06436
1471.0,0.06434
1471.4,0.06433
1471.8,0.06436
1472.2,0.06436
1472.6,0.06435
1473.1,0.06435
1473.5,0.06437
1473.9,0.06442
1474.3,0.06443
1474.7,0.06443
1475.2,0.06445
1475.6,0.06446
1476.0,0.06444
1476.4,0.06447
1476.8,0.06446
1477.3,0.06448
1477.7,0.06448
1478.1,0.06448
1478.5,0.06449
1478.9,0.0645
1479.4,0.06452
1479.8,0.0645
1480.2,0.06453
1480.6,0.06457
1481.1,0.06453
1481.5,0.06452
1481.9,0.06456
1482.3,0.06459
1482.8,0.06458
1483.2,0.06458
1483.6,0.0646
1484.0,0.0646
1484.4,0.06459
1484.9,0.06462
1485.3,0.06465
1485.7,0.06467
1486.2,0.06468
1486.6,0.06464
1487.0,0.06467
1487.4,0.0647
1487.9,0.06464
1488.3,0.06463
1488.7,0.0647
1489.1,0.06471
1489.6,0.06472
1490.0,0.06471
1490.4,0.06469
1490.8,0.06476
1491.3,0.06481
1491.7,0.06479
1492.1,0.06478
1492.6,0.0648
1493.0,0.06483
1493.4,0.06481
1493.9,0.06481
1494.3,0.06481
1494.7,0.06482
1495.2,0.0648
1495.6,0.06479
1496.0,0.06484
1496.4,0.06488
1496.9,0.06493
1497.3,0.06495
1497.7,0.06496
1498.2,0.06494
1498.6,0.0649
1499.0,0.06484
1499.5,0.0649
1499.9,0.06496
1500.3,0.06496
1500.8,0.06497
1501.2,0.06497
1501.7,0.06496
1502.1,0.06498
1502.5,0.06498
1502.9,0.06497
1503.4,0.06499
1503.8,0.065
1504.3,0.06497
1504.7,0.065
1505.1,0.06503
1505.6,0.06505
1506.0,0.06504
1506.4,0.06504
1506.9,0.06507
1507.3,0.06507
1507.8,0.06508
1508.2,0.06509
1508.6,0.06506
1509.1,0.06509
1509.5,0.06511
1510.0,0.06511
1510.4,0.0651
1510.8,0.06513
1511.3,0.06519
1511.7,0.0652
1512.2,0.06517
1512.6,0.06514
1513.0,0.06518
1513.5,0.06523
1513.9,0.06521
1514.4,0.06519
1514.8,0.06519
1515.3,0.06519
1515.7,0.0652
1516.1,0.06522
1516.6,0.06523
1517.0,0.06524
1517.5,0.06527
1517.9,0.06529
1518.4,0.06529
1518.8,0.06528
1519.3,0.06526
1519.7,0.06527
1520.1,0.06529
1520.6,0.06529
1521.0,0.06533
1521.5,0.06535
1521.9,0.06534
1522.4,0.06535
1522.8,0.06539
1523.3,0.06539
1523.7,0.06543
1524.2,0.06547
1524.6,0.06545
1525.1,0.06543
1525.5,0.06541
1525.9,0.06543
1526.4,0.06546
1526.8,0.06545
1527.3,0.06543
1527.8,0.06546
1528.2,0.06549
1528.7,0.06548
1529.1,0.06549
1529.6,0.06548
1530.0,0.06549
1530.5,0.06553
1530.9,0.06551
1531.4,0.06552
1531.8,0.06553
1532.3,0.06554
1532.7,0.06558
1533.2,0.06558
1533.6,0.06554
1534.1,0.06559
1534.5,0.06564
1535.0,0.06563
1535.4,0.06562
1535.9,0.06561
1536.3,0.06562
1536.8,0.0656
1537.3,0.06561
1537.7,0.06565
1538.2,0.06567
1538.6,0.06567
1539.1,0.06568
1539.6,0.06566
1540.0,0.06567
1540.5,0.06574
1540.9,0.06577
1541.4,0.06574
1541.8,0.06573
1542.3,0.06575
1542.8,0.06573
1543.2,0.06571
1543.7,0.0657
1544.1,0.06573
1544.6,0.06575
1545.1,0.06576
1545.5,0.06579
1546.0,0.0658
1546.4,0.06582
1546.9,0.06583
1547.4,0.06581
1547.8,0.06583
1548.3,0.06587
1548.8,0.06586
1549.2,0.06584
1549.7,0.06582
1550.1,0.06582
1550.6,0.06586
1551.1,0.06588
1551.5,0.06589
1552.0,0.06593
1552.4,0.06593
1552.9,0.0659
1553.4,0.06589
1553.8,0.06589
1554.3,0.06594
1554.8,0.06598
1555.3,0.06597
1555.7,0.06598
1556.2,0.066
1556.7,0.06599
1557.1,0.066
1557.6,0.066
1558.1,0.06599
1558.5,0.06598
1559.0,0.06596
1559.5,0.06601
1559.9,0.06604
1560.4,0.06609
1560.9,0.06613
1561.3,0.0661
1561.8,0.06605
1562.3,0.06603
1562.8,0.06605
1563.2,0.06606
1563.7,0.06609
1564.2,0.06613
1564.6,0.06614
1565.1,0.06613
1565.6,0.06611
1566.1,0.06612
1566.5,0.06615
1567.0,0.06618
1567.5,0.0662
1567.9,0.0662
1568.4,0.0662
1568.9,0.06617
1569.4,0.06619
1569.8,0.06621
1570.3,0.06619
1570.8,0.06619
1571.3,0.0662
1571.8,0.0662
1572.2,0.06622
1572.7,0.06626
1573.2,0.0663
1573.7,0.06631
1574.1,0.06626
1574.6,0.06626
1575.1,0.06628
1575.6,0.06629
1576.1,0.06632
1576.5,0.06632
1577.0,0.06632
1577.5,0.06638
1578.0,0.06637
1578.4,0.06634
1578.9,0.06637
1579.4,0.06633
1579.9,0.0663
1580.4,0.06633
1580.9,0.06638
1581.3,0.06638
1581.8,0.06636
1582.3,0.06636
1582.8,0.06637
1583.3,0.0664
1583.8,0.0664
1584.2,0.06639
1584.7,0.06643
1585.2,0.06649
1585.7,0.06653
1586.2,0.0665
1586.7,0.06647
1587.2,0.06647
1587.6,0.06648
1588.1,0.06648
1588.6,0.0665
1589.1,0.06653
1589.6,0.06658
1590.1,0.06654
1590.6,0.06651
1591.0,0.06656
1591.5,0.06658
1592.0,0.06658
1592.5,0.06659
1593.0,0.06662
1593.5,0.0666
1594.0,0.06658
1594.5,0.06662
1595.0,0.06664
1595.4,0.06664
1595.9,0.06666
1596.4,0.06665
1596.9,0.06664
1597.4,0.06665
1597.9,0.06667
1598.4,0.06673
1598.9,0.06674
1599.4,0.06669
1599.9,0.06666
1600.4,0.06667
1600.9,0.06673
1601.4,0.06678
1601.9,0.06678
1602.3,0.06673
1602.8,0.06672
1603.3,0.06674
1603.8,0.06679
1604.3,0.06685
1604.8,0.06685
1605.3,0.06681
1605.8,0.06679
1606.3,0.06683
1606.8,0.06686
1607.3,0.06684
1607.8,0.06684
1608.3,0.06684
1608.8,0.06685
1609.3,0.06689
1609.8,0.06691
1610.3,0.06688
1610.8,0.06688
1611.3,0.06691
1611.8,0.0669
1612.3,0.06692
1612.8,0.0669
1613.3,0.06688
1613.8,0.06691
1614.3,0.06691
1614.8,0.06692
1615.3,0.06693
1615.8,0.06691
1616.3,0.06693
1616.8,0.06697
1617.3,0.06699
1617.8,0.06697
1618.4,0.06695
1618.9,0.06697
1619.4,0.067
1619.9,0.067
1620.4,0.067
1620.9,0.06702
1621.4,0.06704
1621.9,0.06704
1622.4,0.06703
1622.9,0.06707
1623.4,0.0671
1623.9,0.06708
1624.4,0.06705
1624.9,0.06706
1625.5,0.0671
1626.0,0.06708
1626.5,0.06707
1627.0,0.06715
1627.5,0.06721
1628.0,0.06718
1628.5,0.06714
1629.0,0.06712
1629.6,0.06713
1630.1,0.06713
1630.6,0.06718
1631.1,0.06724
1631.6,0.0672
1632.1,0.0672
1632.6,0.06718
1633.1,0.06718
1633.7,0.06721
1634.2,0.06721
1634.7,0.06724
1635.2,0.06729
1635.7,0.06725
1636.2,0.06723
1636.8,0.06726
1637.3,0.06727
1637.8,0.06728
1638.3,0.06727
1638.8,0.06725
1639.3,0.06728
1639.8,0.06731
1640.4,0.06732
1640.9,0.06731
1641.4,0.0673
1641.9,0.06731
1642.4,0.06735
1643.0,0.06738
1643.5,0.06738
1644.0,0.06741
1644.5,0.06743
1645.1,0.06741
1645.6,0.06743
1646.1,0.06741
1646.6,0.06739
1647.2,0.06742
1647.7,0.06743
1648.2,0.06743
1648.7,0.06743
1649.2,0.06744
1649.8,0.06746
1650.3,0.06748
1650.8,0.06749
1651.3,0.0675
1651.9,0.06748
1652.4,0.06746
1652.9,0.06745
1653.4,0.0675
1654.0,0.06755
1654.5,0.06754
1655.0,0.06752
1655.6,0.06754
1656.1,0.06758
1656.6,0.06758
1657.2,0.06754
1657.7,0.06753
1658.2,0.06756
1658.7,0.06758
1659.3,0.06759
1659.8,0.0676
1660.3,0.0676
1660.9,0.06761
1661.4,0.06765
1661.9,0.06764
1662.5,0.06763
1663.0,0.06767
1663.5,0.06768
1664.1,0.06765
1664.6,0.06765
1665.1,0.06763
1665.7,0.06762
1666.2,0.06767
1666.7,0.06773
1667.3,0.06775
1667.8,0.06775
1668.3,0.06778
1668.9,0.06775
1669.4,0.06775
1670.0,0.06778
1670.5,0.06777
1671.0,0.06777
1671.6,0.06777
1672.1,0.06778
1672.7,0.0678
1673.2,0.06777
1673.7,0.06776
1674.3,0.06781
1674.8,0.06785
1675.4,0.06786
1675.9,0.06784
1676.4,0.06783
1677.0,0.06785
1677.5,0.06789
1678.1,0.06788
1678.6,0.06786
1679.2,0.06788
1679.7,0.06791
1680.2,0.06793
1680.8,0.06793
1681.3,0.0679
1681.9,0.06789
1682.4,0.06793
1683.0,0.06791
1683.5,0.06788
1684.1,0.0679
1684.6,0.06793
1685.2,0.06794
1685.7,0.06796
1686.3,0.06796
1686.8,0.06796
1687.3,0.06798
1687.9,0.06801
1688.4,0.06802
1689.0,0.06799
1689.6,0.068
1690.1,0.06805
1690.7,0.06804
1691.2,0.06802
1691.8,0.06803
1692.3,0.06807
1692.9,0.06805
1693.4,0.06804
1694.0,0.06807
1694.5,0.06811
1695.1,0.06811
1695.6,0.06808
1696.2,0.06808
1696.7,0.06812
1697.3,0.06811
1697.8,0.06811
1698.4,0.06815
1699.0,0.06817
1699.5,0.06818
1700.1,0.06817
1700.6,0.06817
1701.2,0.0682
1701.8,0.06822
1702.3,0.06822
1702.9,0.06824
1703.4,0.06823
1704.0,0.06823
1704.6,0.06822
1705.1,0.06822
1705.7,0.06823
1706.2,0.06825
1706.8,0.06825
1707.4,0.06823
1707.9,0.06823
1708.5,0.06827
1709.0,0.06831
1709.6,0.06832
1710.2,0.06833
1710.7,0.06835
1711.3,0.06835
1711.9,0.06832
1712.4,0.06834
1713.0,0.06836
1713.6,0.06836
1714.1,0.06837
1714.7,0.06835
1715.3,0.06832
1715.8,0.06833
1716.4,0.06835
1717.0,0.06838
1717.5,0.06842
1718.1,0.06844
1718.7,0.06844
1719.2,0.06846
1719.8,0.06844
1720.4,0.06841
1721.0,0.06842
1721.5,0.06848
1722.1,0.06849
1722.7,0.06849
1723.2,0.0685
1723.8,0.0685
1724.4,0.06847
1725.0,0.06847
1725.5,0.06848
1726.1,0.0685
1726.7,0.06851
1727.3,0.06851
1727.8,0.06851
1728.4,0.06852
1729.0,0.06856
1729.6,0.06858
1730.1,0.06857
1730.7,0.06858
1731.3,0.06855
1731.9,0.06857
1732.5,0.0686
1733.0,0.0686
1733.6,0.0686
1734.2,0.06863
1734.8,0.06866
1735.4,0.06865
1735.9,0.06863
1736.5,0.06862
1737.1,0.06862
1737.7,0.06863
1738.3,0.06866
1738.8,0.06866
1739.4,0.06866
1740.0,0.06869
1740.6,0.06867
1741.2,0.06869
1741.8,0.06869
1742.3,0.06872
1742.9,0.06874
1743.5,0.06874
1744.1,0.06873
1744.7,0.06872
1745.3,0.06874
1745.9,0.06876
1746.5,0.06878
1747.1,0.06878
1747.6,0.0688
1748.2,0.06882
1748.8,0.0688
1749.4,0.06878
1750.0,0.06879
1750.6,0.0688
1751.2,0.06877
1751.8,0.06877
1752.4,0.0688
1753.0,0.0688
1753.6,0.06885
1754.1,0.06889
1754.7,0.06886
1755.3,0.06883
1755.9,0.06886
1756.5,0.06888
1757.1,0.06888
1757.7,0.0689
1758.3,0.06889
1758.9,0.0689
1759.5,0.06893
1760.1,0.06895
1760.7,0.06895
1761.3,0.06893
1761.9,0.06893
1762.5,0.06896
1763.1,0.06897
1763.7,0.06899
1764.3,0.06901
1764.9,0.06901
1765.5,0.06901
1766.1,0.069
1766.7,0.06899
1767.3,0.06901
1767.9,0.06903
1768.5,0.06905
1769.1,0.06904
1769.7,0.06903
1770.3,0.06905
1770.9,0.06907
1771.5,0.0691
1772.1,0.06909
1772.7,0.06908
1773.3,0.06909
1773.9,0.06906
1774.6,0.06909
1775.2,0.06911
1775.8,0.06911
1776.4,0.06913
1777.0,0.06915
1777.6,0.06913
1778.2,0.06914
1778.8,0.06916
1779.4,0.06916
1780.0,0.06917
1780.7,0.06917
1781.3,0.06917
1781.9,0.06919
1782.5,0.06922
1783.1,0.06921
1783.7,0.06921
1784.3,0.06925
1784.9,0.06929
1785.6,0.06929
1786.2,0.06926
1786.8,0.06926
1787.4,0.0693
1788.0,0.06932
1788.6,0.06929
1789.3,0.06928
1789.9,0.06931
1790.5,0.06935
1791.1,0.06939
1791.7,0.06937
1792.3,0.06935
1793.0,0.06936
1793.6,0.06935
1794.2,0.06936
1794.8,0.06938
1795.4,0.06939
1796.1,0.06938
1796.7,0.06939
1797.3,0.06943
1797.9,0.06942
1798.6,0.06942
1799.2,0.06945
1799.8,0.06945
1800.4,0.06945
1801.1,0.06943
1801.7,0.0694
1802.3,0.06943
1802.9,0.06946
1803.6,0.0695
1804.2,0.0695
1804.8,0.06949
1805.4,0.06949
1806.1,0.06949
1806.7,0.06951
1807.3,0.06952
1808.0,0.06956
1808.6,0.06957
1809.2,0.06956
1809.9,0.06953
1810.5,0.06954
1811.1,0.06955
1811.8,0.06957
1812.4,0.06958
1813.0,0.06955
1813.7,0.06955
1814.3,0.06958
1814.9,0.06959
1815.6,0.06961
1816.2,0.06965
1816.8,0.06967
1817.5,0.06963
1818.1,0.06962
1818.8,0.06964
1819.4,0.06966
1820.0,0.06965
1820.7,0.06966
1821.3,0.06968
1821.9,0.06968
1822.6,0.06967
1823.2,0.0697
1823.9,0.0697
1824.5,0.06971
1825.2,0.06972
1825.8,0.06974
1826.4,0.06976
1827.1,0.06975
1827.7,0.06975
1828.4,0.06976
1829.0,0.06978
1829.7,0.0698
1830.3,0.06978
1831.0,0.06978
1831.6,0.06977
1832.3,0.06975
1832.9,0.06975
1833.6,0.06979
1834.2,0.06986
1834.8,0.0699
1835.5,0.06989
1836.1,0.06989
1836.8,0.06991
1837.4,0.0699
1838.1,0.06988
1838.8,0.06987
1839.4,0.0699
1840.1,0.0699
1840.7,0.06992
1841.4,0.06995
1842.0,0.06994
1842.7,0.06992
1843.3,0.06996
1844.0,0.06999
1844.6,0.06996
1845.3,0.06996
1845.9,0.07
1846.6,0.07
1847.3,0.06998
1847.9,0.06999
1848.6,0.07001
1849.2,0.07
1849.9,0.07
1850.6,0.06999
1851.2,0.07001
1851.9,0.07004
1852.6,0.07008
1853.2,0.07008
1853.9,0.07008
1854.5,0.07006
1855.2,0.07005
1855.9,0.07006
1856.5,0.07006
1857.2,0.07003
1857.9,0.07005
1858.5,0.07014
1859.2,0.07018
1859.9,0.07016
1860.5,0.07013
1861.2,0.07012
1861.9,0.0701
1862.5,0.07012
1863.2,0.07016
1863.9,0.07017
1864.5,0.07015
1865.2,0.07015
1865.9,0.07019
1866.6,0.07023
1867.2,0.0702
1867.9,0.07018
1868.6,0.0702
1869.2,0.07023
1869.9,0.07023
1870.6,0.07021
1871.3,0.07019
1871.9,0.0702
1872.6,0.07027
1873.3,0.07029
1874.0,0.07026
1874.7,0.07025
1875.3,0.07027
1876.0,0.07026
1876.7,0.07027
1877.4,0.07027
1878.0,0.07028
1878.7,0.07029
1879.4,0.07028
1880.1,0.0703
1880.8,0.07033
1881.4,0.07032
1882.1,0.07031
1882.8,0.07032
1883.5,0.07035
1884.2,0.0704
1884.9,0.07039
1885.6,0.07034
1886.2,0.07034
1886.9,0.07032
1887.6,0.07032
1888.3,0.07036
1889.0,0.0704
1889.7,0.07043
1890.4,0.0704
1891.1,0.07036
1891.8,0.07042
1892.4,0.07044
1893.1,0.07043
1893.8,0.07044
1894.5,0.07046
1895.2,0.07045
1895.9,0.07045
1896.6,0.07044
1897.3,0.07044
1898.0,0.07049
1898.7,0.0705
1899.4,0.07052
1900.1,0.07049
1900.8,0.07046
1901.5,0.07047
1902.2,0.07051
1902.9,0.07053
1903.6,0.0705
1904.3,0.07049
1905.0,0.07048
1905.7,0.07048
1906.4,0.0705
1907.1,0.07053
1907.8,0.07054
1908.5,0.07052
1909.2,0.07052
1909.9,0.07051
1910.6,0.07051
1911.3,0.07051
1912.0,0.07051
1912.7,0.07052
1913.4,0.07055
1914.1,0.07058
1914.8,0.07059
1915.5,0.0706
1916.2,0.07057
1916.9,0.07058
1917.6,0.07057
1918.3,0.07061
1919.1,0.07063
1919.8,0.07063
1920.5,0.07059
1921.2,0.07059
1921.9,0.0706
1922.6,0.07059
1923.3,0.07058
1924.0,0.07061
1924.8,0.07065
1925.5,0.07068
1926.2,0.07069
1926.9,0.07066
1927.6,0.07065
1928.3,0.07067
1929.1,0.07069
1929.8,0.07071
1930.5,0.0707
1931.2,0.07067
1931.9,0.07071
1932.7,0.07074
1933.4,0.07074
1934.1,0.07073
1934.8,0.07074
1935.5,0.07075
1936.3,0.07075
1937.0,0.07076
1937.7,0.07078
1938.4,0.07077
1939.2,0.07078
1939.9,0.07079
1940.6,0.07083
1941.3,0.07085
1942.1,0.07083
1942.8,0.07082
1943.5,0.07082
1944.2,0.07084
1945.0,0.07083
1945.7,0.07083
1946.4,0.07087
1947.2,0.07086
1947.9,0.07086
1948.6,0.0709
1949.4,0.07089
1950.1,0.0709
1950.8,0.07091
1951.6,0.07092
1952.3,0.07095
1953.0,0.07095
1953.8,0.07093
1954.5,0.07091
1955.2,0.07094
1956.0,0.07098
1956.7,0.071
1957.5,0.07101
1958.2,0.07102
1958.9,0.07104
1959.7,0.07103
1960.4,0.07101
1961.2,0.07103
1961.9,0.07107
1962.6,0.07106
1963.4,0.07104
1964.1,0.07106
1964.9,0.07109
1965.6,0.07109
1966.4,0.07111
1967.1,0.07113
1967.9,0.07111
1968.6,0.0711
1969.3,0.07112
1970.1,0.07112
1970.8,0.0711
1971.6,0.07113
1972.3,0.07112
1973.1,0.07115
1973.8,0.07118
1974.6,0.07119
1975.3,0.0712
1976.1,0.07122
1976.9,0.07121
1977.6,0.07119
1978.4,0.07117
1979.1,0.0712
1979.9,0.07124
1980.6,0.07129
1981.4,0.0713
1982.2,0.07128
1982.9,0.07127
1983.7,0.07128
1984.4,0.07125
1985.2,0.07124
1985.9,0.07126
1986.7,0.0713
1987.5,0.07133
1988.2,0.07135
1989.0,0.07137
1989.8,0.07138
1990.5,0.07137
1991.3,0.07138
1992.1,0.07138
1992.8,0.07142
1993.6,0.07142
1994.3,0.07137
1995.1,0.07135
1995.9,0.07138
1996.7,0.07142
1997.4,0.07142
1998.2,0.07141
1999.0,0.07142
1999.7,0.07143
2000.5,0.07149
2001.3,0.07151
2002.1,0.07151
2002.8,0.07151
2003.6,0.07152
2004.4,0.07151
2005.2,0.07152
2005.9,0.07153
2006.7,0.07153
2007.5,0.07154
2008.3,0.07156
2009.0,0.07157
2009.8,0.07156
2010.6,0.07156
2011.4,0.07158
2012.2,0.07159
2012.9,0.07159
2013.7,0.07161
2014.5,0.0716
2015.3,0.07157
2016.1,0.07158
2016.8,0.07162
2017.6,0.07161
2018.4,0.07162
2019.2,0.0717
2020.0,0.07168
2020.8,0.07164
2021.6,0.07168
2022.3,0.0717
2023.1,0.0717
2023.9,0.07172
2024.7,0.0717
2025.5,0.07168
2026.3,0.07172
2027.1,0.07175
2027.9,0.07174
2028.7,0.07171
2029.5,0.07172
2030.3,0.07175
2031.1,0.07174
2031.9,0.07175
2032.7,0.07177
2033.5,0.07179
2034.3,0.07181
2035.1,0.0718
2035.8,0.07179
2036.7,0.07182
2037.4,0.07186
2038.3,0.07186
2039.1,0.07186
2039.9,0.07188
2040.7,0.07188
2041.5,0.07187
2042.3,0.0719
2043.1,0.07192
2043.9,0.0719
2044.7,0.07188
2045.5,0.07189
2046.3,0.07193
2047.1,0.07199
2047.9,0.07198
2048.7,0.07197
2049.5,0.07198
2050.4,0.07196
2051.2,0.07197
2052.0,0.07199
2052.8,0.072
2053.6,0.07199
2054.4,0.07201
2055.2,0.07204
2056.0,0.07204
2056.9,0.07203
2057.7,0.07205
2058.5,0.07207
2059.3,0.07206
2060.1,0.07205
2060.9,0.07205
2061.8,0.07205
2062.6,0.0721
2063.4,0.07211
2064.2,0.07212
2065.1,0.07214
2065.9,0.07213
2066.7,0.07212
2067.5,0.07211
2068.3,0.07211
2069.2,0.07217
2070.0,0.0722
2070.8,0.0722
2071.6,0.07219
2072.5,0.07219
2073.3,0.07221
2074.1,0.0722
2075.0,0.07221
2075.8,0.07224
2076.6,0.07223
2077.5,0.07224
2078.3,0.07224
2079.1,0.07224
2080.0,0.07225
2080.8,0.07225
2081.6,0.07224
2082.5,0.07225
2083.3,0.07227
2084.1,0.07231
2085.0,0.07231
2085.8,0.07233
2086.6,0.07233
2087.5,0.07231
2088.3,0.07231
2089.2,0.07233
2090.0,0.07234
2090.9,0.07232
2091.7,0.07231
2092.6,0.07234
2093.4,0.07239
2094.2,0.07239
2095.1,0.07238
2095.9,0.07241
2096.8,0.07244
2097.6,0.07245
2098.5,0.07243
2099.3,0.07243
2100.2,0.07246
2101.0,0.07248
2101.9,0.07251
2102.7,0.0725
2103.6,0.07248
2104.4,0.07248
2105.3,0.07248
2106.1,0.07249
2107.0,0.07249
2107.9,0.0725
2108.7,0.07252
2109.6,0.07252
2110.4,0.07251
2111.3,0.07252
2112.1,0.07252
2113.0,0.07251
2113.9,0.07254
2114.7,0.07258
2115.6,0.07259
2116.5,0.07258
2117.3,0.07257
2118.2,0.07258
2119.1,0.07261
2119.9,0.07262
2120.8,0.07265
2121.7,0.07265
2122.5,0.0726
2123.4,0.0726
2124.3,0.07263
2125.1,0.07265
2126.0,0.07266
2126.9,0.07264
2127.8,0.07266
2128.6,0.07269
2129.5,0.07269
2130.4,0.07268
2131.3,0.07268
2132.1,0.0727
2133.0,0.07273
2133.9,0.07273
2134.8,0.07271
2135.6,0.07269
2136.5,0.07273
2137.4,0.07278
2138.3,0.07277
2139.2,0.07274
2140.1,0.07277
2140.9,0.07278
2141.8,0.0728
2142.7,0.07281
2143.6,0.07279
2144.5,0.0728
2145.4,0.07284
2146.3,0.07288
2147.1,0.07285
2148.0,0.07282
2148.9,0.07285
2149.8,0.07289
2150.7,0.07288
2151.6,0.07288
2152.5,0.07288
2153.4,0.07291
2154.3,0.07293
2155.2,0.07292
2156.1,0.07292
2157.0,0.07291
2157.9,0.0729
2158.8,0.0729
2159.7,0.07293
2160.6,0.07296
2161.5,0.07295
2162.4,0.07296
2163.3,0.07296
2164.2,0.07298
2165.1,0.07301
2166.0,0.07302
2166.9,0.07303
2167.8,0.07302
2168.7,0.073
2169.6,0.07302
2170.5,0.07306
2171.4,0.07306
2172.3,0.07306
2173.2,0.07305
2174.1,0.07303
2175.1,0.07304
2176.0,0.07308
2176.9,0.0731
2177.8,0.07311
2178.7,0.07312
2179.6,0.07312
2180.6,0.07314
2181.5,0.07316
2182.4,0.07316
2183.3,0.07314
2184.2,0.07315
2185.1,0.07316
2186.1,0.07314
2187.0,0.07312
2187.9,0.07314
2188.8,0.07314
2189.8,0.07314
2190.7,0.07318
2191.6,0.0732
2192.5,0.07321
2193.5,0.07321
2194.4,0.07318
2195.3,0.07317
2196.3,0.07315
2197.2,0.07315
2198.1,0.0732
2199.1,0.07321
2200.0,0.07322
2200.9,0.07325
2201.9,0.07328
2202.8,0.07331
2203.7,0.0733
2204.7,0.07328
2205.6,0.07325
2206.5,0.07326
2207.5,0.0733
2208.4,0.07333
2209.4,0.07334
2210.3,0.07335
2211.2,0.07334
2212.2,0.07332
2213.1,0.07333
2214.1,0.07332
2215.0,0.07332
2216.0,0.07336
2216.9,0.07339
2217.9,0.07336
2218.8,0.07332
2219.8,0.07335
2220.7,0.07338
2221.7,0.07339
2222.6,0.07342
2223.6,0.07341
2224.5,0.07339
2225.5,0.07342
2226.4,0.07342
2227.4,0.07344
2228.4,0.07344
2229.3,0.07345
2230.3,0.07344
2231.2,0.07343
2232.2,0.07344
2233.1,0.07344
2234.1,0.07344
2235.1,0.07347
2236.0,0.07347
2237.0,0.07348
2238.0,0.07349
2238.9,0.07348
2239.9,0.07347
2240.9,0.07346
2241.8,0.07349
2242.8,0.07351
2243.8,0.0735
2244.8,0.07351
2245.7,0.07352
2246.7,0.07354
2247.7,0.07353
2248.6,0.07352
2249.6,0.07352
2250.6,0.07353
2251.6,0.07356
2252.6,0.07353
2253.5,0.07352
2254.5,0.07355
2255.5,0.07357
2256.5,0.07358
2257.5,0.07357
2258.4,0.07355
2259.4,0.07356
2260.4,0.07358
2261.4,0.07358
2262.4,0.07357
2263.4,0.0736
2264.4,0.07362
2265.4,0.07356
2266.3,0.07356
2267.3,0.0736
2268.3,0.07358
2269.3,0.07361
2270.3,0.07364
2271.3,0.07364
2272.3,0.07363
2273.3,0.07361
2274.3,0.0736
2275.3,0.07361
2276.3,0.07359
2277.3,0.07357
2278.3,0.07358
2279.3,0.07361
2280.3,0.07361
2281.3,0.07359
2282.3,0.07359
2283.3,0.07362
2284.3,0.07364
2285.3,0.07365
2286.3,0.07365
2287.3,0.07364
2288.3,0.07366
2289.4,0.07368
2290.4,0.07368
2291.4,0.07367
2292.4,0.07366
2293.4,0.07366
2294.4,0.07364
2295.4,0.07365
2296.4,0.07367
2297.5,0.07365
2298.5,0.07362
2299.5,0.07363
2300.5,0.07363
2301.6,0.07364
2302.6,0.07366
2303.6,0.07363
2304.6,0.07361
2305.6,0.07367
2306.7,0.07367
2307.7,0.07365
2308.7,0.07366
2309.8,0.07364
2310.8,0.0736
2311.8,0.07362
2312.8,0.07366
2313.9,0.07369
2314.9,0.07367
2315.9,0.07364
2317.0,0.07364
2318.0,0.07365
2319.1,0.07368
2320.1,0.07368
2321.1,0.07368
2322.2,0.07374
2323.2,0.07376
2324.3,0.07373
2325.3,0.07369
2326.3,0.07369
2327.4,0.07369
2328.4,0.07371
2329.5,0.07375
2330.5,0.07376
2331.6,0.07376
2332.6,0.07377
2333.7,0.07378
2334.7,0.07378
2335.8,0.07378
2336.8,0.07376
2337.9,0.07377
2338.9,0.07381
2340.0,0.07383
2341.0,0.07383
2342.1,0.07383
2343.1,0.07384
2344.2,0.07389
2345.3,0.07392
2346.3,0.07389
2347.4,0.07388
2348.5,0.07389
2349.5,0.0739
2350.6,0.0739
2351.7,0.07391
2352.7,0.0739
2353.8,0.07394
2354.9,0.07398
2355.9,0.07399
2357.0,0.07398
2358.1,0.07394
2359.1,0.07395
2360.2,0.074
2361.3,0.07401
2362.4,0.07402
2363.4,0.07402
2364.5,0.07404
2365.6,0.07406
2366.7,0.07407
2367.8,0.07407
2368.9,0.07406
2369.9,0.07406
2371.0,0.07409
2372.1,0.07408
2373.2,0.07407
2374.3,0.07411
2375.4,0.07413
2376.4,0.07408
2377.5,0.07409
2378.6,0.07413
2379.7,0.07416
2380.8,0.07415
2381.9,0.07414
2383.0,0.07413
2384.1,0.07414
2385.2,0.07416
2386.3,0.07417
2387.4,0.07419
2388.5,0.0742
2389.6,0.07421
2390.7,0.0742
2391.8,0.0742
2392.9,0.07422
2394.0,0.07426
2395.1,0.07426
2396.2,0.07425
2397.3,0.07428
2398.4,0.07429
2399.5,0.07428
2400.6,0.07427
2401.8,0.07431
2402.9,0.07431
2404.0,0.0743
2405.1,0.07429
2406.2,0.07429
2407.3,0.07432
2408.5,0.07433
2409.6,0.07433
2410.7,0.07435
2411.8,0.07438
2412.9,0.07439
2414.1,0.0744
2415.2,0.07442
2416.3,0.07445
2417.4,0.07443
2418.6,0.07444
2419.7,0.07448
2420.8,0.07449
2422.0,0.07444
2423.1,0.07444
2424.2,0.07447
2425.4,0.07448
2426.5,0.07451
2427.6,0.07449
2428.8,0.07447
2429.9,0.07451
2431.1,0.07452
2432.2,0.07452
2433.3,0.0745
2434.5,0.0745
2435.6,0.07452
2436.8,0.07453
2437.9,0.07455
2439.1,0.07455
2440.2,0.07451
2441.4,0.0745
2442.5,0.07454
2443.6,0.07457
2444.8,0.07458
2445.9,0.0746
2447.1,0.07461
2448.3,0.07463
2449.4,0.07458
2450.6,0.07455
2451.7,0.0746
2452.9,0.07464
2454.1,0.07462
2455.2,0.07463
2456.4,0.07463
2457.6,0.07463
2458.7,0.07463
2459.9,0.07464
2461.1,0.07466
2462.2,0.07471
2463.4,0.07472
2464.6,0.07469
2465.7,0.07467
2466.9,0.07469
2468.1,0.07467
2469.3,0.07466
2470.4,0.07465
2471.6,0.07469
2472.8,0.07471
2474.0,0.07469
2475.1,0.07467
2476.3,0.07468
2477.5,0.07468
2478.7,0.07467
2479.9,0.0747
2481.1,0.07475
2482.3,0.07477
2483.4,0.07473
2484.6,0.07471
2485.8,0.07471
2487.0,0.07472
2488.2,0.07472
2489.4,0.07472
2490.6,0.07473
2491.8,0.07472
2493.0,0.07473
2494.2,0.07472
2495.4,0.07472
2496.6,0.07474
2497.8,0.07476
2499.0,0.07475
2500.2,0.07472
2501.4,0.07474
2502.6,0.07482
2503.8,0.07479
2505.0,0.07472
2506.3,0.07474
2507.5,0.07477
2508.7,0.07477
2509.9,0.07475
2511.1,0.07474
2512.3,0.07478
2513.5,0.07478
2514.8,0.07478
2516.0,0.0748
2517.2,0.0748
2518.4,0.07478
2519.6,0.0748
2520.9,0.07482
2522.1,0.0748
2523.3,0.07479
2524.6,0.0748
2525.8,0.07481
2527.0,0.07482
2528.2,0.07483
2529.5,0.07487
2530.7,0.07488
2531.9,0.0749
2533.2,0.07488
2534.4,0.0749
2535.7,0.07493
2536.9,0.07488
2538.1,0.07486
2539.4,0.07492
2540.6,0.07495
2541.9,0.07493
2543.1,0.07491
2544.4,0.0749
2545.6,0.07492
2546.9,0.07495
2548.1,0.07498
2549.4,0.07497
2550.6,0.07498
2551.9,0.07499
2553.1,0.07498
2554.4,0.07497
2555.6,0.07502
2556.9,0.07503
2558.2,0.07502
2559.4,0.07503
2560.7,0.07504
2562.0,0.07506
2563.2,0.07505
2564.5,0.07505
2565.8,0.07502
2567.0,0.07499
2568.3,0.07503
2569.6,0.07508
2570.9,0.07502
2572.1,0.07506
2573.4,0.07509
2574.7,0.07505
2576.0,0.07506
2577.3,0.07506
2578.5,0.07506
2579.8,0.07513
2581.1,0.07516
2582.4,0.07513
2583.7,0.0752
2585.0,0.07517
2586.2,0.07516
2587.5,0.07518
2588.8,0.07516
2590.1,0.07515
2591.4,0.0751
2592.7,0.07512
2594.0,0.07522
2595.3,0.07516
2596.6,0.07506
2597.9,0.07509
2599.2,0.07512
2600.5,0.07515
2601.8,0.07518
2603.1,0.0752
2604.4,0.07522
2605.7,0.07519
2607.1,0.07515
2608.4,0.07517
2609.7,0.07516
2611.0,0.07512
2612.3,0.07514
2613.6,0.07519
2614.9,0.07518
2616.3,0.07524
2617.6,0.0752
2618.9,0.07516
2620.2,0.07519
2621.6,0.07511
2622.9,0.0751
2624.2,0.07512
2625.5,0.07511
2626.9,0.07511
2628.2,0.0751
2629.5,0.07515
2630.9,0.07509
2632.2,0.07503
2633.5,0.07504
2634.9,0.07503
2636.2,0.07503
2637.6,0.07504
2638.9,0.07504
2640.2,0.07504
2641.6,0.07499
2642.9,0.07498
2644.3,0.07502
2645.6,0.07502
2647.0,0.07495
2648.3,0.07493
2649.7,0.0749
2651.0,0.07491
2652.4,0.07492
2653.8,0.0749
2655.1,0.07487
2656.5,0.07482
2657.8,0.07482
2659.2,0.07485
2660.6,0.07478
2661.9,0.07475
2663.3,0.07475
2664.7,0.07479
2666.0,0.07471
2667.4,0.07456
2668.8,0.07447
2670.1,0.07445
2671.5,0.07418
2672.9,0.07408
2674.3,0.07406
2675.6,0.07401
2677.0,0.07387
2678.4,0.07374
2679.8,0.07353
2681.2,0.07331
2682.6,0.07314
2684.0,0.07288
2685.4,0.07255
2686.8,0.07222
2688.1,0.07174
2689.5,0.07127
2690.9,0.07074
2692.3,0.07021
2693.7,0.06956
2695.1,0.06874
2696.5,0.06776
2697.9,0.06666
2699.3,0.06548
2700.7,0.06422
2702.1,0.06273
2703.6,0.06137
2705.0,0.06008
2706.4,0.05878
2707.8,0.05753
2709.2,0.05637
2710.6,0.05514
2712.0,0.05386
2713.5,0.0529
2714.9,0.05214
2716.3,0.05148
2717.7,0.05102
2719.1,0.05069
2720.6,0.05039
2722.0,0.05005
2723.4,0.0499
2724.9,0.04968
2726.3,0.04947
2727.7,0.04927
2729.2,0.04906
2730.6,0.04885
2732.0,0.04867
2733.5,0.04848
2734.9,0.04825
2736.4,0.04794
2737.8,0.04769
2739.3,0.04742
2740.7,0.04711
2742.2,0.04679
2743.6,0.04654
2745.1,0.04631
2746.5,0.04602
2748.0,0.04569
2749.4,0.04542
2750.9,0.04509
2752.3,0.0448
2753.8,0.04454
2755.3,0.04424
2756.7,0.04389
2758.2,0.04364
2759.7,0.0434
2761.1,0.04319
2762.6,0.04293
2764.1,0.04272
2765.6,0.04252
2767.0,0.04231
2768.5,0.04203
2770.0,0.04178
2771.5,0.04157
2772.9,0.04143
2774.4,0.04129
2775.9,0.04118
2777.4,0.04097
2778.9,0.04084
2780.4,0.04075
2781.9,0.04062
2783.4,0.0405
2784.9,0.04043
2786.4,0.04031
2787.9,0.0402
2789.4,0.0401
2790.9,0.04007
2792.4,0.04003
2793.9,0.03993
2795.4,0.03991
2796.9,0.03989
2798.4,0.03983
2799.9,0.03978
2801.4,0.03975
2802.9,0.03974
2804.4,0.03974
2806.0,0.03973
2807.5,0.03972
2809.0,0.03975
2810.5,0.03977
2812.1,0.03979
2813.6,0.03983
2815.1,0.03985
2816.6,0.03989
2818.2,0.03997
2819.7,0.04008
2821.2,0.04014
2822.8,0.04018
2824.3,0.04025
2825.8,0.04037
2827.4,0.04047
2828.9,0.04052
2830.5,0.04059
2832.0,0.04071
2833.6,0.0409
2835.1,0.04106
2836.7,0.04116
2838.2,0.04124
2839.8,0.04134
2841.3,0.04149
2842.9,0.04161
2844.4,0.0417
2846.0,0.04182
2847.6,0.04195
2849.1,0.04206
2850.7,0.04218
2852.3,0.04228
2853.8,0.04237
2855.4,0.04251
2857.0,0.04264
2858.6,0.04276
2860.1,0.04284
2861.7,0.04289
2863.3,0.04295
2864.9,0.04309
2866.4,0.04322
2868.0,0.04333
2869.6,0.04343
2871.2,0.04352
2872.8,0.04363
2874.4,0.04376
2876.0,0.04386
2877.6,0.04397
2879.2,0.04407
2880.8,0.04413
2882.4,0.04419
2884.0,0.04425
2885.6,0.04434
2887.2,0.04442
2888.8,0.04452
2890.4,0.04457
2892.0,0.04459
2893.6,0.04463
2895.3,0.04468
2896.9,0.04474
2898.5,0.0448
2900.1,0.04485
2901.7,0.04488
2903.4,0.04489
2905.0,0.04495
2906.6,0.04496
2908.3,0.04494
2909.9,0.04494
2911.5,0.04497
2913.1,0.04501
2914.8,0.04499
2916.4,0.04494
2918.1,0.04495
2919.7,0.04496
2921.4,0.04496
2923.0,0.04497
2924.7,0.04499
2926.3,0.04499
2928.0,0.04501
2929.6,0.04501
2931.3,0.04501
2932.9,0.04502
2934.6,0.04505
2936.3,0.04507
2937.9,0.0451
2939.6,0.04518
2941.2,0.04521
2942.9,0.04523
2944.6,0.04532
2946.3,0.04544
2947.9,0.04551
2949.6,0.04558
2951.3,0.04566
2953.0,0.04574
2954.6,0.04584
2956.3,0.04594
2958.0,0.04598
2959.7,0.04601
2961.4,0.04608
2963.1,0.04619
2964.8,0.04624
2966.5,0.04634
2968.2,0.04645
2969.9,0.04653
2971.6,0.04663
2973.3,0.0467
2975.0,0.04674
2976.7,0.04681
2978.4,0.04686
2980.1,0.04688
2981.8,0.04694
2983.6,0.04705
2985.3,0.04717
2987.0,0.04724
2988.7,0.0473
2990.4,0.04738
2992.2,0.04747
2993.9,0.04757
2995.6,0.04765
2997.4,0.04773
2999.1,0.04783
3000.8,0.04786
3002.6,0.04791
3004.3,0.048
3006.0,0.0481
3007.8,0.04817
3009.5,0.04822
3011.3,0.04828
3013.0,0.0484
3014.8,0.04852
3016.5,0.04861
3018.3,0.04867
3020.0,0.04877
3021.8,0.04889
3023.6,0.04904
3025.3,0.04916
3027.1,0.04921
3028.9,0.04928
3030.6,0.0494
3032.4,0.0495
3034.2,0.04961
3036.0,0.04972
3037.7,0.04985
3039.5,0.04995
3041.3,0.05003
3043.1,0.05008
3044.9,0.05015
3046.7,0.05025
3048.4,0.05036
3050.2,0.0505
3052.0,0.05064
3053.8,0.05075
3055.6,0.05088
3057.4,0.05097
3059.2,0.05107
3061.1,0.05117
3062.9,0.05124
3064.7,0.05129
3066.5,0.05138
3068.3,0.05154
3070.1,0.05162
3071.9,0.05169
3073.8,0.05181
3075.6,0.05196
3077.4,0.05214
3079.2,0.0522
3081.1,0.05225
3082.9,0.05237
3084.7,0.05251
3086.6,0.0526
3088.4,0.0527
3090.2,0.05287
3092.1,0.05301
3093.9,0.05312
3095.8,0.05322
3097.6,0.05335
3099.5,0.05352
3101.3,0.05364
3103.2,0.05374
3105.0,0.05387
3106.9,0.05401
3108.8,0.05418
3110.6,0.05431
3112.5,0.05439
3114.4,0.05452
3116.2,0.05464
3118.1,0.05475
3120.0,0.05491
3121.9,0.05506
3123.7,0.05515
3125.6,0.05529
3127.5,0.05548
3129.4,0.05565
3131.3,0.05574
3133.2,0.05583
3135.1,0.05598
3137.0,0.05609
3138.9,0.05624
3140.8,0.0564
3142.7,0.05653
3144.6,0.05667
3146.5,0.05683
3148.4,0.05697
3150.3,0.05706
3152.2,0.05721
3154.1,0.05735
3156.1,0.05748
3158.0,0.05758
3159.9,0.0577
3161.8,0.05782
3163.8,0.05792
3165.7,0.05806
3167.6,0.05825
3169.6,0.05837
3171.5,0.05845
3173.4,0.05858
3175.4,0.05873
3177.3,0.05884
3179.3,0.059
3181.2,0.05918
3183.2,0.05927
3185.1,0.05936
3187.1,0.0595
3189.1,0.05962
3191.0,0.0597
3193.0,0.0598
3194.9,0.05997
3196.9,0.06011
3198.9,0.06021
3200.9,0.06036
3202.9,0.06046
3204.8,0.06054
3206.8,0.06065
3208.8,0.06079
3210.8,0.06087
3212.8,0.06099
3214.8,0.06112
3216.8,0.06125
3218.8,0.06139
3220.8,0.06151
3222.8,0.06162
3224.8,0.06172
3226.8,0.06184
3228.8,0.06189
3230.8,0.062
3232.8,0.06215
3234.8,0.06224
3236.8,0.06231
3238.9,0.06241
3240.9,0.0625
3242.9,0.06261
3244.9,0.06273
3247.0,0.06282
3249.0,0.06292
3251.0,0.06302
3253.1,0.06311
3255.1,0.0632
3257.2,0.06331
3259.2,0.0634
3261.3,0.06351
3263.3,0.06363
3265.4,0.06374
3267.4,0.06384
3269.5,0.06392
3271.6,0.06399
3273.6,0.06411
3275.7,0.06422
3277.8,0.06429
3279.8,0.06436
3281.9,0.06446
3284.0,0.06455
3286.1,0.06459
3288.1,0.06464
3290.2,0.06473
3292.3,0.0648
3294.4,0.06487
3296.5,0.06496
3298.6,0.06503
3300.7,0.06516
3302.8,0.06528
3304.9,0.06535
3307.0,0.06542
3309.1,0.06549
3311.2,0.06554
3313.4,0.06562
3315.5,0.06569
3317.6,0.06578
3319.7,0.06583
3321.9,0.06588
3324.0,0.06597
3326.1,0.06602
3328.3,0.06603
3330.4,0.06612
3332.5,0.06622
3334.7,0.06624
3336.8,0.06624
3339.0,0.06631
3341.1,0.06635
3343.3,0.0664
3345.4,0.06642
3347.6,0.06636
3349.8,0.06632
3351.9,0.0663
3354.1,0.06624
3356.3,0.0662
3358.4,0.06615
3360.6,0.06614
3362.8,0.06607
3365.0,0.06598
3367.1,0.06593
3369.3,0.06594
3371.5,0.06596
3373.7,0.0659
3375.9,0.06586
3378.1,0.06594
3380.3,0.06607
3382.5,0.06613
3384.7,0.06624
3386.9,0.0664
3389.1,0.06649
3391.4,0.06648
3393.6,0.06648
3395.8,0.06654
3398.0,0.06657
3400.3,0.06654
3402.5,0.0665
3404.7,0.06643
3407.0,0.0664
3409.2,0.06644
3411.4,0.06648
3413.7,0.06653
3415.9,0.06659
3418.2,0.0667
3420.4,0.06687
3422.7,0.06712
3425.0,0.06735
3427.2,0.06751
3429.5,0.06774
3431.8,0.06793
3434.0,0.06804
3436.3,0.0682
3438.6,0.06837
3440.9,0.0685
3443.2,0.06865
3445.4,0.06879
3447.7,0.06889
3450.0,0.06903
3452.3,0.06913
3454.6,0.06919
3456.9,0.06928
3459.2,0.06937
3461.6,0.06946
3463.9,0.06952
3466.2,0.06953
3468.5,0.06955
3470.8,0.06955
3473.1,0.06949
3475.5,0.06954
3477.8,0.06963
3480.1,0.06971
3482.5,0.06976
3484.8,0.0698
3487.2,0.06987
3489.5,0.06997
3491.9,0.07005
3494.2,0.07004
3496.6,0.07009
3498.9,0.0702
3501.3,0.07029
3503.6,0.07043
3506.0,0.07058
3508.4,0.07079
3510.8,0.07095
3513.1,0.07107
3515.5,0.07121
3517.9,0.07131
3520.3,0.07146
3522.7,0.07163
3525.1,0.07181
3527.5,0.07192
3529.9,0.07202
3532.3,0.07214
3534.7,0.07225
3537.1,0.07233
3539.5,0.07242
3541.9,0.07253
3544.4,0.07262
3546.8,0.07267
3549.2,0.07269
3551.6,0.07276
3554.1,0.07289
3556.5,0.07301
3559.0,0.07302
3561.4,0.07299
3563.9,0.07304
3566.3,0.07316
3568.8,0.07329
3571.2,0.07333
3573.7,0.07333
3576.1,0.07338
3578.6,0.07346
3581.1,0.07355
3583.6,0.07363
3586.0,0.07365
3588.5,0.07365
3591.0,0.07369
3593.5,0.07375
3596.0,0.07376
3598.5,0.07385
3601.0,0.07391
3603.5,0.07396
3606.0,0.07403
3608.5,0.07407
3611.0,0.07414
3613.5,0.07419
3616.0,0.0742
3618.6,0.07428
3621.1,0.07433
3623.6,0.07425
3626.1,0.07425
3628.7,0.0743
3631.2,0.07435
3633.8,0.07445
3636.3,0.07455
3638.9,0.07457
3641.4,0.07461
3644.0,0.07469
3646.6,0.07472
3649.1,0.07473
3651.7,0.07473
3654.3,0.07482
3656.8,0.07486
3659.4,0.07487
3662.0,0.07489
3664.6,0.07495
3667.2,0.075
3669.8,0.07503
3672.4,0.07515
3675.0,0.07519
3677.6,0.07508
3680.2,0.07511
3682.8,0.07522
3685.4,0.0753
3688.1,0.07532
3690.7,0.07543
3693.3,0.07539
3695.9,0.07538
3698.6,0.07546
3701.2,0.07547
3703.9,0.07549
3706.5,0.07555
3709.2,0.07559
3711.8,0.07561
3714.5,0.07562
3717.1,0.07564
3719.8,0.07574
3722.5,0.07578
3725.2,0.07575
3727.8,0.07581
3730.5,0.07588
3733.2,0.0759
3735.9,0.07589
3738.6,0.07596
3741.3,0.07605
3744.0,0.07608
3746.7,0.0761
3749.4,0.07618
3752.1,0.07618
3754.8,0.07612
3757.6,0.0761
3760.3,0.07613
3763.0,0.07617
3765.7,0.07629
3768.5,0.07628
3771.2,0.07619
3774.0,0.07624
3776.7,0.07637
3779.5,0.07637
3782.2,0.07638
3785.0,0.07641
3787.7,0.07643
3790.5,0.07645
3793.3,0.07651
3796.1,0.0766
3798.8,0.07662
3801.6,0.07664
3804.4,0.07668
3807.2,0.07671
3810.0,0.07674
3812.8,0.07677
3815.6,0.07679
3818.4,0.07681
3821.2,0.07683
3824.1,0.07686
3826.9,0.07687
3829.7,0.07689
3832.5,0.07694
3835.4,0.07696
3838.2,0.07697
3841.1,0.07699
3843.9,0.07701
3846.8,0.07704
3849.6,0.07707
3852.5,0.07708
3855.3,0.07708
3858.2,0.0771
3861.1,0.07714
3863.9,0.07717
3866.8,0.07719
3869.7,0.07721
3872.6,0.07724
3875.5,0.07729
3878.4,0.07732
3881.3,0.07732
3884.2,0.07734
3887.1,0.07737
3890.0,0.07738
3893.0,0.0774
3895.9,0.07743
3898.8,0.07744
3901.7,0.07745
3904.7,0.07747
3907.6,0.07747
3910.6,0.07749
3913.5,0.07752
3916.5,0.07755
3919.4,0.07757
3922.4,0.07758
3925.4,0.0776
3928.4,0.07759
3931.3,0.0776
3934.3,0.07762
3937.3,0.07765
3940.3,0.07767
3943.3,0.07766
3946.3,0.07762
3949.3,0.07763
3952.3,0.07762
3955.3,0.0776
3958.3,0.0776
3961.4,0.07757
3964.4,0.07757
3967.4,0.07758
3970.5,0.07759
3973.5,0.0776
3976.6,0.0776
3979.6,0.07761
3982.6,0.07764
3985.7,0.07767
3988.8,0.07771
3991.9,0.07774
3994.9,0.07778
3998.0,0.07781
4001.1,0.07785
4004.2,0.0779
4007.3,0.07793
4010.4,0.07797
4013.5,0.07803
4016.6,0.07805
4019.7,0.07807
4022.8,0.0781
4025.9,0.07813
4029.1,0.07813
4032.2,0.07815
4035.3,0.07815
4038.5,0.07816
4041.6,0.07818
4044.8,0.07822
4047.9,0.07823
4051.1,0.07824
4054.3,0.07824
4057.4,0.07825
4060.6,0.07826
4063.8,0.07827
4067.0,0.07828
4070.2,0.0783
4073.4,0.07832
4076.6,0.07832
4079.8,0.07831
4083.0,0.0783
4086.2,0.0783
4089.4,0.07831
4092.7,0.07833
4095.9,0.07832
4099.1,0.07831
4102.4,0.0783
4105.6,0.0783
4108.9,0.07831
4112.1,0.07832
4115.4,0.07831
4118.7,0.0783
4122.0,0.0783
4125.2,0.0783
4128.5,0.0783
4131.8,0.07831
4135.1,0.07833
4138.4,0.07833
4141.7,0.07831
4145.0,0.07832
4148.3,0.07833
4151.6,0.07833
4155.0,0.07833
4158.3,0.07832
4161.6,0.0783
4165.0,0.07828
4168.3,0.07826
4171.7,0.07824
4175.0,0.07826
4178.4,0.07826
4181.8,0.07826
4185.2,0.07827
4188.5,0.07827
4191.9,0.07825
4195.3,0.07823
4198.7,0.07822
4202.1,0.07821
4205.5,0.07822
4208.9,0.07822
4212.4,0.07818
4215.8,0.07815
4219.2,0.07811
4222.6,0.07809
4226.1,0.07805
4229.5,0.07801
4233.0,0.07803
4236.5,0.07803
4239.9,0.078
4243.4,0.078
4246.9,0.07799
4250.3,0.07802
4253.8,0.07804
4257.3,0.07804
4260.8,0.07803
4264.3,0.07801
4267.8,0.07798
4271.3,0.07795
4274.9,0.07794
4278.4,0.07795
4281.9,0.07795
4285.5,0.07797
4289.0,0.07797
4292.6,0.07794
4296.1,0.07793
4299.7,0.07797
4303.3,0.07795
4306.8,0.07791
4310.4,0.07791
4314.0,0.07792
4317.6,0.0779
4321.2,0.07791
4324.8,0.07791
4328.4,0.07792
4332.0,0.07792
4335.6,0.07791
4339.3,0.07789
4342.9,0.07791
4346.5,0.07791
4350.2,0.07788
4353.8,0.07785
4357.5,0.07785
4361.1,0.07784
4364.8,0.07782
4368.5,0.07781
4372.2,0.0778
4375.9,0.07777
4379.6,0.07775
4383.3,0.07774
4387.0,0.07777
4390.7,0.07775
4394.4,0.07771
4398.1,0.07769
4401.9,0.0777
4405.6,0.07769
4409.4,0.07766
4413.1,0.07765
4416.9,0.07764
4420.6,0.0776
4424.4,0.07757
4428.2,0.07757
4432.0,0.07757
4435.8,0.07753
4439.6,0.07752
4443.4,0.07753
4447.2,0.07751
4451.0,0.07747
4454.8,0.07746
4458.6,0.07745
4462.5,0.07745
4466.3,0.07743
4470.2,0.07741
4474.0,0.07738
4477.9,0.07738
4481.8,0.07738
4485.6,0.07736
4489.5,0.07733
4493.4,0.07734
4497.3,0.07735
4501.2,0.07732
4505.1,0.0773
4509.0,0.0773
4513.0,0.07731
4516.9,0.0773
4520.9,0.07728
4524.8,0.07727
4528.7,0.07725
4532.7,0.07723
4536.7,0.07722
4540.6,0.07722
4544.6,0.07719
4548.6,0.07717
4552.6,0.07716
4556.6,0.07717
4560.6,0.07714
4564.6,0.07712
4568.6,0.07712
4572.7,0.07712
4576.7,0.07712
4580.8,0.07709
4584.8,0.07705
4588.9,0.07704
4592.9,0.07702
4597.0,0.077
4601.1,0.07698
4605.2,0.07699
4609.3,0.07697
4613.4,0.07695
4617.5,0.07691
4621.6,0.07688
4625.7,0.07685
4629.8,0.07683
4634.0,0.07682
4638.1,0.0768
4642.3,0.07677
4646.4,0.07675
4650.6,0.07671
4654.8,0.07668
4659.0,0.07665
4663.1,0.07664
4667.3,0.0766
4671.5,0.07658
4675.8,0.07656
4680.0,0.07654
4684.2,0.07651
4688.4,0.07648
4692.7,0.07644
4696.9,0.07641
4701.2,0.07637
4705.5,0.07635
4709.7,0.07635
4714.0,0.07635
4718.3,0.07631
4722.6,0.07629
4726.9,0.07626
4731.2,0.07624
4735.5,0.0762
4739.9,0.07617
4744.2,0.07613
4748.5,0.07611
4752.9,0.07608
4757.3,0.07606
4761.6,0.07603
4766.0,0.076
4770.4,0.07597
4774.8,0.07596
4779.2,0.07593
4783.6,0.07591
4788.0,0.07586
4792.4,0.07583
4796.9,0.07581
4801.3,0.07578
4805.8,0.07573
4810.2,0.0757
4814.7,0.07565
4819.1,0.07559
4823.6,0.07555
4828.1,0.07551
4832.6,0.07545
4837.1,0.07541
4841.6,0.07538
4846.2,0.07534
4850.7,0.07529
4855.3,0.07524
4859.8,0.07517
4864.4,0.07512
4868.9,0.07507
4873.5,0.07502
4878.1,0.07495
4882.7,0.07492
4887.3,0.07488
4891.9,0.07482
4896.5,0.07477
4901.1,0.07471
4905.8,0.07464
4910.4,0.07459
4915.1,0.07454
4919.7,0.07448
4924.4,0.07443
4929.1,0.0744
4933.8,0.07434
4938.5,0.0743
4943.2,0.07427
4947.9,0.07425
4952.6,0.07422
4957.4,0.07419
4962.1,0.07417
4966.9,0.07415
4971.6,0.07412
4976.4,0.07406
4981.2,0.07399
4986.0,0.07395
4990.8,0.07391
4995.6,0.07386
5000.4,0.0738
5005.2,0.07376
5010.0,0.07371
5014.9,0.07367
5019.8,0.07362
5024.6,0.07357
5029.5,0.07351
5034.4,0.07345
5039.3,0.07339
5044.2,0.07333
5049.1,0.07327
5054.0,0.07324
5058.9,0.07318
5063.9,0.07311
5068.8,0.07306
5073.8,0.073
5078.8,0.07294
5083.7,0.07291
5088.7,0.07284
5093.7,0.07277
5098.7,0.0727
5103.7,0.07265
5108.8,0.07259
5113.8,0.07254
5118.9,0.07247
5123.9,0.07242
5129.0,0.07236
5134.1,0.07232
5139.1,0.07229
5144.3,0.07227
5149.4,0.07223
5154.5,0.07215
5159.6,0.07209
5164.7,0.07204
5169.9,0.072
5175.0,0.07196
5180.2,0.0719
5185.4,0.07185
5190.6,0.07182
5195.8,0.0718
5201.0,0.07176
5206.2,0.07171
5211.5,0.07169
5216.7,0.07164
5222.0,0.07158
5227.2,0.07156
5232.5,0.07151
5237.8,0.07144
5243.1,0.07139
5248.4,0.07135
5253.7,0.0713
5259.0,0.07124
5264.4,0.07119
5269.7,0.07116
5275.1,0.07111
5280.5,0.07105
5285.8,0.07101
5291.2,0.07099
5296.6,0.0709
5302.0,0.07085
5307.5,0.07079
5312.9,0.07074
5318.4,0.07069
5323.8,0.07065
5329.3,0.07058
5334.8,0.07052
5340.3,0.07047
5345.8,0.07048
5351.3,0.07044
5356.8,0.07034
5362.4,0.07025
5367.9,0.07019
5373.5,0.07012
5379.0,0.07006
5384.6,0.06997
5390.2,0.06991
5395.8,0.06984
5401.5,0.06978
5407.1,0.06972
5412.7,0.06967
5418.4,0.06966
5424.1,0.06959
5429.7,0.06943
5435.4,0.06938
5441.1,0.06934
5446.9,0.06929
5452.6,0.06923
5458.3,0.06923
5464.1,0.06922
5469.8,0.06913
5475.6,0.06905
5481.4,0.06902
5487.2,0.06894
5493.0,0.0689
5498.8,0.06884
5504.7,0.06879
5510.5,0.0687
5516.4,0.06866
5522.3,0.06862
5528.1,0.06853
5534.0,0.06838
5540.0,0.06827
5545.9,0.06812
5551.8,0.06794
5557.8,0.06771
5563.7,0.06751
5569.7,0.06737
5575.7,0.06732
5581.7,0.0672
5587.7,0.06705
5593.7,0.06696
5599.8,0.06694
5605.8,0.06689
5611.9,0.06686
5618.0,0.0668
5624.1,0.06673
5630.2,0.06668
5636.3,0.06673
5642.4,0.06676
5648.6,0.06665
5654.7,0.06657
5660.9,0.06651
5667.1,0.06642
5673.3,0.06643
5679.5,0.06638
5685.7,0.06635
5692.0,0.06632
5698.2,0.06625
5704.5,0.06622
5710.8,0.06623
5717.1,0.06616
5723.4,0.06608
5729.7,0.06597
5736.0,0.06592
5742.4,0.06584
5748.8,0.06574
5755.1,0.06557
5761.5,0.06555
5768.0,0.06544
5774.4,0.06513
5780.8,0.06489
5787.3,0.06466
5793.7,0.06443
5800.2,0.06426
5806.7,0.06403
5813.2,0.06387
5819.8,0.06378
5826.3,0.06353
5832.8,0.06319
5839.4,0.06288
5846.0,0.06259
5852.6,0.06236
5859.2,0.06215
5865.8,0.06191
5872.5,0.06166
5879.1,0.06156
5885.8,0.06112
5892.5,0.06078
5899.2,0.06036
5905.9,0.05981
5912.6,0.05937
5919.4,0.05893
5926.2,0.0585
5932.9,0.05824
5939.7,0.05777
5946.5,0.05727
5953.4,0.05694
5960.2,0.05666
5967.1,0.05641
5974.0,0.05606
5980.8,0.05572
5987.8,0.05547
5994.7,0.05509
6001.6,0.05472
6008.6,0.05445
6015.5,0.05419
6022.5,0.05388
6029.5,0.05369
6036.5,0.05352
6043.6,0.05351
6050.6,0.05337
6057.7,0.05299
6064.8,0.05286
6071.9,0.05281
6079.0,0.05259
6086.1,0.05239
6093.3,0.05228
6100.5,0.05221
6107.6,0.05224
6114.9,0.05225
6122.1,0.05207
6129.3,0.05194
6136.5,0.05187
6143.8,0.05178
6151.1,0.0517
6158.4,0.05172
6165.7,0.05181
6173.1,0.05204
6180.4,0.05249
6187.8,0.053
6195.2,0.0533
6202.6,0.05359
6210.0,0.05388
6217.5,0.05414
6225.0,0.05433
6232.4,0.05451
6239.9,0.05468
6247.5,0.05483
6255.0,0.05496
6262.5,0.05507
6270.1,0.05517
6277.7,0.05527
6285.3,0.05533
6292.9,0.05539
6300.6,0.05545
6308.3,0.05552
6315.9,0.05558
6323.6,0.05564
6331.4,0.05568
6339.1,0.05582
6346.9,0.05591
6354.6,0.05584
6362.4,0.05587
6370.3,0.05601
6378.1,0.05603
6385.9,0.05607
6393.8,0.0561
6401.7,0.05618
6409.6,0.05647
6417.6,0.05661
6425.5,0.05646
6433.5,0.05645
6441.5,0.05645
6449.5,0.05649
6457.5,0.05647
6465.6,0.05647
6473.6,0.05655
6481.7,0.0566
6489.8,0.05666
6498.0,0.05659
6506.1,0.05641
6514.3,0.05639
6522.5,0.05642
6530.7,0.05631
6538.9,0.05628
6547.2,0.05629
6555.5,0.05628
6563.8,0.05631
6572.1,0.05634
6580.4,0.05618
6588.8,0.05608
6597.2,0.05598
6605.6,0.05583
6614.0,0.05576
6622.5,0.05571
6630.9,0.05576
6639.4,0.05569
6647.9,0.05539
6656.5,0.05519
6665.0,0.0551
6673.6,0.05499
6682.2,0.05486
6690.8,0.05463
6699.5,0.05448
6708.1,0.05441
6716.8,0.05428
6725.5,0.05408
6734.3,0.05388
6743.0,0.0537
6751.8,0.05352
6760.6,0.05331
6769.4,0.05315
6778.3,0.05293
6787.1,0.05273
6796.0,0.05235
6805.0,0.05198
6813.9,0.05173
6822.9,0.05156
6831.9,0.05136
6840.9,0.05119
6849.9,0.05112
6859.0,0.05113
6868.0,0.051
6877.2,0.05078
6886.3,0.05066
6895.5,0.05059
6904.6,0.05052
6913.8,0.0504
6923.1,0.05027
6932.3,0.05022
6941.6,0.05018
6950.9,0.05017
6960.2,0.05016
6969.6,0.05005
6979.0,0.04997
6988.4,0.04996
6997.8,0.0499
7007.3,0.04982
7016.8,0.04979
7026.3,0.04976
7035.8,0.04973
7045.4,0.04975
7054.9,0.04971
7064.5,0.04966
7074.2,0.04965
7083.9,0.04964
7093.5,0.04959
7103.3,0.04953
7113.0,0.04946
7122.8,0.04938
7132.6,0.04927
7142.4,0.04923
7152.2,0.04915
7162.1,0.04906
7172.0,0.04897
7182.0,0.04888
7191.9,0.04881
7201.9,0.0488
7211.9,0.04873
7222.0,0.04866
7232.0,0.0486
7242.1,0.04855
7252.3,0.04851
7262.4,0.04849
7272.6,0.04846
7282.8,0.0484
7293.1,0.04834
7303.3,0.04829
7313.6,0.04824
7324.0,0.04819
7334.3,0.04815
7344.7,0.0481
7355.1,0.04801
7365.6,0.04789
7376.1,0.04778
7386.6,0.04766
7397.1,0.04756
7407.7,0.04743
7418.3,0.04729
7428.9,0.04716
7439.6,0.04704
7450.3,0.04694
7461.0,0.04683
7471.7,0.04669
7482.5,0.04656
7493.3,0.04642
7504.2,0.04629
7515.0,0.04615
7525.9,0.04599
7536.9,0.04586
7547.9,0.04571
7558.9,0.04557
7569.9,0.04545
7581.0,0.04535
7592.0,0.04522
7603.2,0.04511
7614.4,0.04501
7625.5,0.04491
7636.8,0.0448
7648.0,0.0447
7659.3,0.04457
7670.7,0.04444
7682.0,0.04429
7693.4,0.04416
7704.9,0.044
7716.3,0.04382
7727.8,0.04366
7739.4,0.04349
7750.9,0.04328
7762.5,0.04306
7774.2,0.04284
7785.8,0.04264
7797.5,0.04242
7809.3,0.04217
7821.1,0.04189
7832.9,0.04165
7844.7,0.04137
7856.6,0.04109
7868.5,0.04077
7880.5,0.04042
7892.5,0.04007
7904.5,0.03974
7916.6,0.03939
7928.7,0.03901
7940.8,0.03859
7953.0,0.03819
7965.2,0.03777
7977.5,0.03733
7989.8,0.03686
8002.1,0.03638
8014.5,0.0359
8026.9,0.03541
8039.3,0.03492
8051.8,0.03444
8064.3,0.03394
8076.9,0.03345
8089.5,0.03295
8102.1,0.03245
8114.8,0.03191
8127.5,0.03138
8140.3,0.03087
8153.1,0.03038
8165.9,0.02985
8178.8,0.02935
8191.7,0.02884
8204.7,0.02835
8217.7,0.02787
8230.7,0.02736
8243.8,0.02685
8257.0,0.02637
8270.1,0.02587
8283.3,0.02541
8296.6,0.02495
8309.9,0.02451
8323.2,0.02406
8336.6,0.02365
8350.0,0.02325
8363.5,0.02289
8377.0,0.02251
8390.5,0.02216
8404.2,0.02183
8417.8,0.02152
8431.5,0.0212
8445.2,0.02094
8459.0,0.02065
8472.8,0.02038
8486.7,0.02012
8500.6,0.01987
8514.5,0.01962
8528.5,0.01946
8542.6,0.01929
8556.7,0.01914
8570.8,0.01899
8585.0,0.01887
8599.3,0.01873
8613.5,0.01862
8627.9,0.01852
8642.3,0.01847
8656.7,0.01841
8671.2,0.0184
8685.7,0.01831
8700.3,0.01821
8714.9,0.01812
8729.6,0.01812
8744.3,0.01813
8759.0,0.01823
8773.9,0.01834
8788.7,0.01847
8803.7,0.01858
8818.6,0.01866
8833.7,0.01873
8848.7,0.01881
8863.8,0.01886
8879.0,0.01893
8894.3,0.01902
8909.5,0.0191
8924.9,0.01912
8940.3,0.01921
8955.7,0.01928
8971.2,0.01931
8986.8,0.01925
9002.3,0.0192
9018.0,0.0191
9033.7,0.01901
9049.5,0.01883
9065.3,0.01868
9081.2,0.01855
9097.1,0.01844
9113.1,0.01834
9129.1,0.01829
9145.2,0.01822
9161.4,0.01821
9177.6,0.01821
9193.9,0.01826
9210.2,0.01829
9226.6,0.01835
9243.0,0.01846
9259.5,0.01858
9276.1,0.01868
9292.7,0.01878
9309.4,0.01884
9326.2,0.0189
9343.0,0.01893
9359.8,0.01894
9376.8,0.01891
9393.7,0.0189
9410.8,0.01885
9427.9,0.01882
9445.1,0.01877
9462.3,0.01874
9479.6,0.01872
9497.0,0.01873
9514.4,0.01873
9531.9,0.01874
9549.4,0.01873
9567.1,0.01875
9584.7,0.01873
9602.5,0.01872
9620.3,0.0187
9638.2,0.0187
9656.1,0.01868
9674.2,0.01867
9692.2,0.01867
9710.4,0.01873
9728.6,0.01879
9746.9,0.01893
9765.2,0.01907
9783.7,0.01923
9802.2,0.01938
9820.7,0.01957
9839.4,0.01969
9858.1,0.01984
9876.8,0.01997
9895.7,0.02012
9914.6,0.02026
9933.6,0.02039
9952.7,0.02045
9971.8,0.02051
9991.0,0.02054
10010.3,0.0206
10029.7,0.02071
10049.1,0.02084
10068.6,0.02094
10088.2,0.02105
10107.9,0.02115
10127.6,0.02128
10147.4,0.02139
10167.3,0.02151
10187.3,0.02162
10207.4,0.0218
10227.5,0.02199
10247.7,0.02219
10268.0,0.02237
10288.4,0.02261
10308.8,0.02287
10329.4,0.02311
10350.0,0.02328
10370.7,0.02347
10391.5,0.02372
10412.3,0.02412
10433.3,0.02458
10454.3,0.02501
10475.5,0.02535
10496.7,0.02565
10517.9,0.02595
10539.3,0.02626
10560.8,0.02651
10582.3,0.02681
10604.0,0.02707
10625.7,0.02731
10647.5,0.02755
10669.4,0.02779
10691.4,0.02804
10713.5,0.02829
10735.7,0.02851
10758.0,0.02873
10780.3,0.02891
10802.8,0.02915
10825.4,0.02939
10848.0,0.02963
10870.8,0.02979
10893.6,0.02996
10916.5,0.03013
10939.5,0.03035
10962.7,0.03055
10985.9,0.03078
11009.2,0.03105
11032.7,0.03136
11056.2,0.03164
11079.8,0.03194
11103.5,0.03221
11127.3,0.03249
11151.3,0.03271
11175.3,0.03279
11199.5,0.03295
11223.7,0.03319
11248.0,0.03338
11272.5,0.0335
11297.1,0.03359
11321.7,0.03371
11346.5,0.03382
11371.4,0.03399
11396.4,0.03412
11421.5,0.0342
11446.7,0.03413
11472.0,0.03391
11497.5,0.03367
11523.0,0.03349
11548.7,0.03333
11574.4,0.03322
11600.3,0.03317
11626.3,0.03317
11652.5,0.03316
11678.7,0.03314
11705.1,0.03306
11731.6,0.03298
11758.2,0.03286
11784.9,0.03266
11811.7,0.03249
11838.7,0.03244
11865.8,0.03248
11893.0,0.03268
11920.3,0.03312
11947.8,0.03361
11975.4,0.03401
12003.1,0.03442
12031.0,0.03468
12059.0,0.03485
12087.1,0.03515
12115.3,0.03542
12143.7,0.03552
12172.2,0.03556
12200.8,0.03551
12229.6,0.03546
12258.5,0.03544
12287.6,0.03537
12316.8,0.03533
12346.1,0.03528
12375.5,0.03513
12405.2,0.03496
12434.9,0.03475
12464.8,0.03452
12494.8,0.03423
12525.0,0.03398
12555.3,0.03374
12585.8,0.03344
12616.4,0.03309
12647.2,0.03282
12678.1,0.03252
12709.2,0.03222
12740.4,0.03187
12771.8,0.03151
12803.3,0.03111
12835.0,0.03072
12866.9,0.03037
12898.9,0.03001
12931.1,0.02957
12963.4,0.02913
12995.9,0.02875
13028.5,0.02835
13061.3,0.02788
13094.3,0.02745
13127.5,0.02701
13160.8,0.02658
13194.3,0.02617
13228.0,0.02576
13261.8,0.02534
13295.8,0.02497
13330.0,0.02458
13364.3,0.02415
13398.9,0.02374
13433.6,0.02344
13468.5,0.02309
13503.5,0.02271
13538.8,0.02245
13574.2,0.02218
13609.9,0.0219
13645.7,0.02167
13681.7,0.02143
13717.9,0.0212
13754.3,0.02094
13790.8,0.02075
13827.6,0.02054
13864.6,0.02043
13901.8,0.0204
13939.1,0.02034
13976.7,0.02005
14014.5,0.01985
14052.5,0.01975
14090.7,0.01956
14129.0,0.01929
14167.7,0.01897
14206.5,0.01873
14245.5,0.01857
14284.7,0.0183
14324.2,0.01808
14363.9,0.01779
14403.8,0.01744
14443.9,0.01725
14484.2,0.0172
14524.8,0.01704
14565.6,0.01686
14606.7,0.01678
14647.9,0.01672
14689.4,0.01655
14731.2,0.01648
14773.1,0.01649
14815.3,0.01648
14857.8,0.01636
14900.5,0.01625
14943.4,0.01624
14986.6,0.01633
15030.0,0.01633
15073.7,0.01634
15117.7,0.01628
15161.9,0.01632
15206.3,0.01633
15251.1,0.01632
15296.1,0.0163
15341.3,0.01645
15386.8,0.01662
15432.6,0.01671
15478.7,0.01678
15525.0,0.01691
15571.7,0.01699
15618.6,0.01716
15665.8,0.01734
15713.2,0.01757
15761.0,0.01765
15809.0,0.01771
15857.4,0.01782
15906.0,0.01804
15955.0,0.01819
16004.2,0.01826
16053.8,0.01827
16103.6,0.01827
16153.8,0.01844
16204.3,0.01871
16255.1,0.01878
16306.2,0.01881
16357.6,0.01879
16409.4,0.0189
16461.5,0.01905
16513.9,0.01912
16566.7,0.01917
16619.8,0.01928
16673.2,0.01937
16727.0,0.01946
16781.1,0.01945
16835.6,0.01943
16890.5,0.0195
16945.7,0.0197
17001.2,0.01985
17057.2,0.0198
17113.4,0.01981
17170.1,0.02003
17227.2,0.02023
17284.6,0.0202
17342.4,0.01998
17400.6,0.01986
17459.2,0.02017
17518.2,0.02035
17577.6,0.02023
17637.3,0.02014
17697.5,0.02005
17758.1,0.02017
17819.2,0.02034
17880.6,0.02053
17942.5,0.02078
18004.8,0.02117
18067.5,0.02172
18130.7,0.02196
18194.3,0.02222
18258.4,0.02276
18322.9,0.02279
18387.9,0.02255
18453.3,0.02271
18519.2,0.02309
18585.6,0.02328
18652.4,0.02332
18719.8,0.02347
18787.6,0.02394
18855.9,0.02439
18924.7,0.02485
18994.1,0.02524
19063.9,0.02548
19134.3,0.0257
19205.1,0.02609
19276.5,0.02664
19348.5,0.02715
19420.9,0.0272
19493.9,0.02729
19567.5,0.02763
19641.6,0.02801
19716.3,0.02824
19791.6,0.02841
19867.4,0.02836
19943.8,0.0283
20020.8,0.02794
20098.4,0.02766
20176.6,0.02753
20255.4,0.02746
20334.8,0.02726
20414.9,0.02706
20495.6,0.02707
20576.9,0.02737
20658.9,0.02792
20741.6,0.02846
20824.8,0.0288
20908.8,0.02943
20993.5,0.02979
21078.8,0.02967
21164.8,0.02949
21251.6,0.02936
21339.1,0.02953
21427.2,0.02994
21516.1,0.0299
21605.8,0.02975
21696.2,0.02996
21787.3,0.03024
21879.3,0.03026
21972.0,0.03047
22065.4,0.03086
22159.7,0.03139
22254.8,0.03165
22350.8,0.03205
22447.5,0.03245
22545.1,0.03256
22643.6,0.03281
22742.9,0.03287
22843.1,0.03297
22944.2,0.03333
23046.1,0.03359
23149.0,0.03371
23252.8,0.03415
23357.6,0.03468
23463.3,0.03484
23569.9,0.03492
23677.5,0.03507
23786.1,0.03508
23895.8,0.03489
24006.4,0.03481
24118.0,0.03463
24230.7,0.03435
24344.5,0.03401
24459.3,0.03381
24575.3,0.03346
24692.3,0.03331
24810.4,0.03348
24929.7,0.03352
25050.1,0.03324
25171.7,0.03309
25294.5,0.03284
25418.5,0.03253
25543.7,0.03219
25670.2,0.03202
25797.9,0.03192
25926.9,0.03199
26057.2,0.03194
26188.8,0.03211
26321.7,0.03222
26456.0,0.03239
26591.7,0.0325
26728.8,0.03265
26867.2,0.03278
27007.2,0.03304
27148.6,0.03366
27291.5,0.03403
27435.9,0.03409
27581.8,0.03446
27729.3,0.03489
27878.4,0.03492
28029.1,0.03509
28181.4,0.03547
28335.4,0.03557
28491.1,0.03582
28648.5,0.03573
28807.7,0.03564
28968.6,0.0358
29131.3,0.03589
29295.9,0.03606
29462.4,0.03655
29630.7,0.03703
29801.0,0.03732
29973.3,0.03732
30147.5,0.03728
30323.8,0.03735
30502.2,0.03716
30682.7,0.03662
30865.3,0.03674
31050.2,0.03681
31237.2,0.03656
31426.5,0.03682
31618.2,0.03694
31812.1,0.03662
32008.5,0.03663
32207.3,0.03679
32408.6,0.03718
32612.4,0.03719
32818.8,0.03729
33027.9,0.03769
33239.6,0.03863
33454.1,0.03876
33671.3,0.03951
33891.4,0.04057
34114.3,0.04129
34340.3,0.04148
34569.2,0.04164
34801.2,0.04115
35036.3,0.04085
35274.7,0.04128
35516.3,0.04221
35761.2,0.04225
36009.6,0.04182
36261.4,0.04226
36516.7,0.04233
36775.7,0.04208
37038.4,0.0429
37304.9,0.04376
37575.2,0.04462
37849.5,0.04432
38127.8,0.04384
38410.2,0.04332
38696.8,0.04333
38987.8,0.04312
39283.2,0.04235
39583.0,0.04161
39887.5,0.04162
40196.7,0.04214
40510.8,0.0422
40829.8,0.04232
41153.8,0.04179
41483.0,0.04129
41817.6,0.04155
42157.5,0.04171
42503.1,0.04199
42854.4,0.04304
43211.5,0.042
43574.6,0.0419
43943.9,0.044
44319.5,0.04407
44701.5,0.0434
45090.2,0.04463
45485.8,0.04654
45888.3,0.04539
46298.0,0.04465
46715.1,0.04536
47139.8,0.0464
47572.3,0.04702
48012.8,0.04772
48461.5,0.04805
48918.7,0.04858
49384.6,0.04761
49859.4,0.04851
