Database of Origin,University of Winnipeg Spectrophotometer Facility
Sample Description,16.12. Meteorites - Ureilites 16.12.3. Pierre Hudon (JSC) samples (b) Nicolet FTIR spectra from RELAB
Other Information,bmr1ph026
Date Added,2018-07-23 23:49:07.441199

Data ID,RLA_MET2_9_9        
Sample ID,PCA82506
Mineral Name,ureilite
Grain Size,<75 um
Viewing Geometry,30/30
Resolution,0.8-121 nm

Wavelength
2000.5,0.04181
2001.3,0.04111
2002.1,0.04065
2002.8,0.0416
2003.6,0.04153
2004.4,0.04134
2005.2,0.04141
2005.9,0.04119
2006.7,0.04167
2007.5,0.04226
2008.3,0.04198
2009.0,0.04179
2009.8,0.04188
2010.6,0.0419
2011.4,0.04176
2012.2,0.04212
2012.9,0.04235
2013.7,0.0423
2014.5,0.04221
2015.3,0.04219
2016.1,0.04225
2016.8,0.04237
2017.6,0.04237
2018.4,0.04241
2019.2,0.04253
2020.0,0.04255
2020.8,0.04235
2021.6,0.04245
2022.4,0.04294
2023.2,0.0428
2023.9,0.04262
2024.7,0.04306
2025.5,0.0437
2026.3,0.04381
2027.1,0.04343
2027.9,0.04349
2028.7,0.04372
2029.5,0.04352
2030.3,0.04337
2031.1,0.04325
2031.9,0.04321
2032.7,0.0436
2033.5,0.04414
2034.3,0.04439
2035.1,0.04419
2035.9,0.04394
2036.7,0.04378
2037.5,0.04384
2038.3,0.04412
2039.1,0.04404
2039.9,0.04399
2040.7,0.04406
2041.5,0.04409
2042.3,0.04441
2043.1,0.04452
2043.9,0.04439
2044.7,0.04447
2045.5,0.04465
2046.3,0.04418
2047.1,0.04391
2047.9,0.04452
2048.7,0.04523
2049.5,0.04519
2050.4,0.04492
2051.2,0.04452
2052.0,0.04474
2052.8,0.04508
2053.6,0.04531
2054.4,0.04531
2055.2,0.04527
2056.0,0.04532
2056.9,0.04515
2057.7,0.04544
2058.5,0.04577
2059.3,0.04569
2060.1,0.04586
2060.9,0.04617
2061.8,0.04587
2062.6,0.04576
2063.4,0.04586
2064.2,0.04613
2065.1,0.04576
2065.9,0.04553
2066.7,0.0454
2067.5,0.04575
2068.3,0.0462
2069.2,0.04623
2070.0,0.04629
2070.8,0.04647
2071.6,0.04655
2072.5,0.04648
2073.3,0.04628
2074.1,0.04682
2075.0,0.04692
2075.8,0.04666
2076.6,0.0471
2077.5,0.04733
2078.3,0.047
2079.1,0.04715
2080.0,0.04734
2080.8,0.04719
2081.6,0.04702
2082.5,0.04715
2083.3,0.04688
2084.1,0.04681
2085.0,0.04689
2085.8,0.04709
2086.7,0.04755
2087.5,0.04784
2088.3,0.04789
2089.2,0.04798
2090.0,0.04788
2090.9,0.04768
2091.7,0.04776
2092.6,0.04743
2093.4,0.04744
2094.2,0.04772
2095.1,0.04794
2095.9,0.0481
2096.8,0.04822
2097.6,0.04841
2098.5,0.04848
2099.3,0.04825
2100.2,0.04795
2101.0,0.04804
2101.9,0.0483
2102.7,0.0489
2103.6,0.04936
2104.4,0.04895
2105.3,0.04879
2106.1,0.04924
2107.0,0.04938
2107.9,0.04917
2108.7,0.04933
2109.6,0.04976
2110.4,0.04998
2111.3,0.04989
2112.2,0.04956
2113.0,0.04957
2113.9,0.04986
2114.7,0.04982
2115.6,0.04972
2116.5,0.04961
2117.3,0.04952
2118.2,0.04964
2119.1,0.04963
2119.9,0.04966
2120.8,0.04956
2121.7,0.04963
2122.5,0.04992
2123.4,0.04987
2124.3,0.04955
2125.1,0.04947
2126.0,0.04961
2126.9,0.04978
2127.8,0.05023
2128.6,0.05051
2129.5,0.05055
2130.4,0.05039
2131.3,0.05028
2132.1,0.05047
2133.0,0.05068
2133.9,0.05052
2134.8,0.05051
2135.6,0.05056
2136.5,0.05068
2137.4,0.05063
2138.3,0.0507
2139.2,0.05098
2140.1,0.05113
2140.9,0.05097
2141.8,0.05099
2142.7,0.05109
2143.6,0.05118
2144.5,0.05116
2145.4,0.05115
2146.3,0.05105
2147.1,0.05126
2148.0,0.05136
2148.9,0.05136
2149.8,0.0516
2150.7,0.05178
2151.6,0.05186
2152.5,0.05166
2153.4,0.05144
2154.3,0.05166
2155.2,0.05194
2156.1,0.05192
2157.0,0.05179
2157.9,0.05208
2158.8,0.05228
2159.7,0.05226
2160.6,0.05221
2161.5,0.05194
2162.4,0.05205
2163.3,0.05241
2164.2,0.05237
2165.1,0.05235
2166.0,0.05272
2166.9,0.05274
2167.8,0.05288
2168.7,0.0529
2169.6,0.05279
2170.5,0.05282
2171.4,0.05283
2172.3,0.05269
2173.3,0.05275
2174.2,0.0529
2175.1,0.05292
2176.0,0.053
2176.9,0.05303
2177.8,0.05323
2178.7,0.05344
2179.6,0.05352
2180.6,0.05352
2181.5,0.05343
2182.4,0.05349
2183.3,0.0535
2184.2,0.05347
2185.1,0.05354
2186.1,0.05359
2187.0,0.05354
2187.9,0.05342
2188.8,0.05348
2189.8,0.05369
2190.7,0.05401
2191.6,0.0539
2192.6,0.05374
2193.5,0.05389
2194.4,0.054
2195.3,0.05388
2196.3,0.05376
2197.2,0.05386
2198.1,0.05415
2199.1,0.05417
2200.0,0.05426
2200.9,0.05432
2201.9,0.054
2202.8,0.05395
2203.7,0.05436
2204.7,0.05443
2205.6,0.05424
2206.5,0.05454
2207.5,0.0548
2208.4,0.0547
2209.4,0.05466
2210.3,0.05477
2211.3,0.05457
2212.2,0.05443
2213.1,0.05451
2214.1,0.05487
2215.0,0.05511
2216.0,0.05497
2216.9,0.05493
2217.9,0.05501
2218.8,0.05503
2219.8,0.05499
2220.7,0.05501
2221.7,0.05514
2222.6,0.05533
2223.6,0.05542
2224.5,0.0556
2225.5,0.05552
2226.4,0.05563
2227.4,0.05598
2228.4,0.0559
2229.3,0.05581
2230.3,0.05562
2231.2,0.05555
2232.2,0.05583
2233.1,0.05585
2234.1,0.05568
2235.1,0.05584
2236.0,0.05602
2237.0,0.05585
2238.0,0.05575
2238.9,0.05565
2239.9,0.05586
2240.9,0.05619
2241.8,0.05636
2242.8,0.0563
2243.8,0.05619
2244.8,0.05622
2245.7,0.05624
2246.7,0.05625
2247.7,0.05659
2248.6,0.05681
2249.6,0.05677
2250.6,0.05642
2251.6,0.05627
2252.6,0.05648
2253.5,0.05651
2254.5,0.05635
2255.5,0.05637
2256.5,0.0566
2257.5,0.05662
2258.4,0.0566
2259.4,0.05678
2260.4,0.05693
2261.4,0.05713
2262.4,0.05711
2263.4,0.05701
2264.4,0.05689
2265.4,0.05706
2266.3,0.05728
2267.3,0.0574
2268.3,0.05754
2269.3,0.05765
2270.3,0.05755
2271.3,0.05751
2272.3,0.05757
2273.3,0.05775
2274.3,0.0576
2275.3,0.05756
2276.3,0.05781
2277.3,0.05797
2278.3,0.05807
2279.3,0.05821
2280.3,0.05806
2281.3,0.05795
2282.3,0.05792
2283.3,0.05797
2284.3,0.0582
2285.3,0.0583
2286.3,0.05826
2287.3,0.05831
2288.4,0.0583
2289.4,0.05835
2290.4,0.05845
2291.4,0.05844
2292.4,0.05851
2293.4,0.05835
2294.4,0.05812
2295.4,0.05817
2296.5,0.05868
2297.5,0.05898
2298.5,0.05891
2299.5,0.05891
2300.5,0.05871
2301.6,0.05854
2302.6,0.05876
2303.6,0.05908
2304.6,0.05916
2305.6,0.05894
2306.7,0.05869
2307.7,0.0589
2308.7,0.05895
2309.8,0.05876
2310.8,0.05894
2311.8,0.05902
2312.9,0.05909
2313.9,0.05918
2314.9,0.05923
2315.9,0.05926
2317.0,0.0592
2318.0,0.05919
2319.1,0.05933
2320.1,0.05953
2321.1,0.0598
2322.2,0.05979
2323.2,0.05971
2324.3,0.05982
2325.3,0.05973
2326.3,0.05973
2327.4,0.05966
2328.4,0.05964
2329.5,0.05971
2330.5,0.05989
2331.6,0.05992
2332.6,0.05977
2333.7,0.0599
2334.7,0.06006
2335.8,0.06008
2336.8,0.05993
2337.9,0.05995
2338.9,0.06011
2340.0,0.06012
2341.0,0.06017
2342.1,0.06022
2343.2,0.06019
2344.2,0.0603
2345.3,0.06046
2346.3,0.06066
2347.4,0.06057
2348.5,0.06053
2349.5,0.06046
2350.6,0.06031
2351.7,0.06029
2352.7,0.06054
2353.8,0.06068
2354.9,0.06067
2355.9,0.06068
2357.0,0.06066
2358.1,0.06069
2359.1,0.06081
2360.2,0.06087
2361.3,0.06107
2362.4,0.06112
2363.4,0.06101
2364.5,0.06097
2365.6,0.061
2366.7,0.06093
2367.8,0.06091
2368.9,0.06095
2369.9,0.06109
2371.0,0.06127
2372.1,0.0613
2373.2,0.0611
2374.3,0.06106
2375.4,0.06152
2376.4,0.0617
2377.5,0.0616
2378.6,0.06157
2379.7,0.06147
2380.8,0.06155
2381.9,0.0616
2383.0,0.06165
2384.1,0.06161
2385.2,0.06154
2386.3,0.06178
2387.4,0.06199
2388.5,0.06193
2389.6,0.06179
2390.7,0.06194
2391.8,0.06199
2392.9,0.06189
2394.0,0.06193
2395.1,0.06215
2396.2,0.06219
2397.3,0.0621
2398.4,0.06222
2399.6,0.06217
2400.7,0.06203
2401.8,0.06226
2402.9,0.06233
2404.0,0.06209
2405.1,0.06205
2406.2,0.06248
2407.4,0.06274
2408.5,0.0626
2409.6,0.06263
2410.7,0.06265
2411.8,0.06243
2412.9,0.06239
2414.1,0.06267
2415.2,0.0628
2416.3,0.06272
2417.4,0.06268
2418.6,0.06278
2419.7,0.06297
2420.8,0.06294
2422.0,0.06299
2423.1,0.06303
2424.2,0.06297
2425.4,0.06302
2426.5,0.06304
2427.6,0.06303
2428.8,0.06308
2429.9,0.06318
2431.1,0.06329
2432.2,0.06322
2433.3,0.06332
2434.5,0.06346
2435.6,0.06352
2436.8,0.06338
2437.9,0.06313
2439.1,0.06323
2440.2,0.06349
2441.4,0.06362
2442.5,0.06367
2443.6,0.06367
2444.8,0.06366
2446.0,0.06378
2447.1,0.06382
2448.3,0.06366
2449.4,0.06351
2450.6,0.06359
2451.7,0.06369
2452.9,0.06377
2454.1,0.06378
2455.2,0.06373
2456.4,0.06393
2457.6,0.06408
2458.7,0.06405
2459.9,0.06404
2461.1,0.06416
2462.2,0.06417
2463.4,0.06406
2464.6,0.064
2465.7,0.06407
2466.9,0.06411
2468.1,0.0641
2469.3,0.06413
2470.4,0.06416
2471.6,0.06407
2472.8,0.06426
2474.0,0.06441
2475.1,0.06442
2476.3,0.0644
2477.5,0.06443
2478.7,0.06441
2479.9,0.06435
2481.1,0.0644
2482.3,0.06452
2483.4,0.06448
2484.6,0.06468
2485.8,0.06486
2487.0,0.0649
2488.2,0.06485
2489.4,0.06487
2490.6,0.06494
2491.8,0.06494
2493.0,0.06504
2494.2,0.06516
2495.4,0.0651
2496.6,0.06502
2497.8,0.06508
2499.0,0.06515
2500.2,0.06512
2501.4,0.06518
2502.6,0.06538
2503.8,0.06532
2505.0,0.06532
2506.3,0.06535
2507.5,0.06536
2508.7,0.06531
2509.9,0.06545
2511.1,0.0657
2512.3,0.06579
2513.5,0.06558
2514.8,0.06537
2516.0,0.06542
2517.2,0.06549
2518.4,0.06554
2519.6,0.06578
2520.9,0.06596
2522.1,0.06592
2523.3,0.06579
2524.6,0.06583
2525.8,0.06597
2527.0,0.06607
2528.3,0.06606
2529.5,0.06611
2530.7,0.06616
2531.9,0.06628
2533.2,0.06625
2534.4,0.06611
2535.7,0.0661
2536.9,0.06621
2538.1,0.06624
2539.4,0.06624
2540.6,0.06629
2541.9,0.06628
2543.1,0.06619
2544.4,0.06625
2545.6,0.06642
2546.9,0.06659
2548.1,0.06654
2549.4,0.06644
2550.6,0.06654
2551.9,0.06655
2553.1,0.06656
2554.4,0.06658
2555.7,0.06666
2556.9,0.06661
2558.2,0.0665
2559.4,0.06656
2560.7,0.06672
2562.0,0.06681
2563.2,0.06675
2564.5,0.06677
2565.8,0.06683
2567.1,0.06681
2568.3,0.06691
2569.6,0.06698
2570.9,0.06693
2572.1,0.067
2573.4,0.06699
2574.7,0.06682
2576.0,0.0671
2577.3,0.06729
2578.5,0.06719
2579.8,0.0671
2581.1,0.06711
2582.4,0.06721
2583.7,0.06724
2585.0,0.06708
2586.3,0.06705
2587.5,0.06714
2588.8,0.06724
2590.1,0.0672
2591.4,0.06733
2592.7,0.06747
2594.0,0.06759
2595.3,0.06769
2596.6,0.06751
2597.9,0.06743
2599.2,0.06751
2600.5,0.06771
2601.8,0.06794
2603.1,0.06796
2604.4,0.06796
2605.8,0.06794
2607.1,0.0679
2608.4,0.06787
2609.7,0.06774
2611.0,0.0677
2612.3,0.06792
2613.6,0.06795
2614.9,0.06788
2616.3,0.06807
2617.6,0.06808
2618.9,0.06808
2620.2,0.06813
2621.6,0.06801
2622.9,0.06795
2624.2,0.06803
2625.5,0.0682
2626.9,0.06827
2628.2,0.06823
2629.5,0.06834
2630.9,0.06845
2632.2,0.06836
2633.5,0.06836
2634.9,0.06816
2636.2,0.06813
2637.6,0.06834
2638.9,0.06844
2640.2,0.06846
2641.6,0.06849
2642.9,0.06839
2644.3,0.06828
2645.6,0.06834
2647.0,0.06838
2648.3,0.06847
2649.7,0.06861
2651.0,0.0686
2652.4,0.06863
2653.8,0.06863
2655.1,0.06869
2656.5,0.06868
2657.8,0.0688
2659.2,0.06895
2660.6,0.06885
2661.9,0.06876
2663.3,0.06873
2664.7,0.06893
2666.0,0.06904
2667.4,0.06883
2668.8,0.06874
2670.1,0.06888
2671.5,0.06894
2672.9,0.069
2674.3,0.069
2675.7,0.06888
2677.0,0.06886
2678.4,0.06894
2679.8,0.06884
2681.2,0.06873
2682.6,0.06879
2684.0,0.06888
2685.4,0.06903
2686.8,0.0691
2688.1,0.06911
2689.5,0.06913
2690.9,0.06909
2692.3,0.06902
2693.7,0.06908
2695.1,0.06906
2696.5,0.06908
2697.9,0.06912
2699.3,0.06907
2700.8,0.06917
2702.1,0.06929
2703.6,0.06928
2705.0,0.06914
2706.4,0.06913
2707.8,0.06915
2709.2,0.06913
2710.6,0.06914
2712.1,0.0691
2713.5,0.06911
2714.9,0.06909
2716.3,0.06908
2717.7,0.06919
2719.2,0.06929
2720.6,0.06918
2722.0,0.06899
2723.4,0.06909
2724.9,0.06917
2726.3,0.06896
2727.7,0.06886
2729.2,0.06892
2730.6,0.06891
2732.1,0.06878
2733.5,0.06877
2734.9,0.06878
2736.4,0.06875
2737.8,0.0688
2739.3,0.06868
2740.7,0.06848
2742.2,0.06834
2743.6,0.06824
2745.1,0.06835
2746.5,0.06835
2748.0,0.06827
2749.4,0.06825
2750.9,0.06829
2752.4,0.06825
2753.8,0.0681
2755.3,0.06806
2756.7,0.06792
2758.2,0.06785
2759.7,0.0677
2761.1,0.06761
2762.6,0.06773
2764.1,0.06771
2765.6,0.06762
2767.0,0.06753
2768.5,0.06735
2770.0,0.06718
2771.5,0.0671
2773.0,0.06699
2774.4,0.06686
2775.9,0.06687
2777.4,0.06684
2778.9,0.06673
2780.4,0.06677
2781.9,0.06672
2783.4,0.06651
2784.9,0.06647
2786.4,0.06655
2787.9,0.06645
2789.4,0.06626
2790.9,0.0661
2792.4,0.06613
2793.9,0.06615
2795.4,0.06613
2796.9,0.06611
2798.4,0.06603
2799.9,0.06585
2801.4,0.06582
2802.9,0.06589
2804.4,0.06591
2806.0,0.0658
2807.5,0.06558
2809.0,0.06541
2810.5,0.06535
2812.1,0.06536
2813.6,0.06537
2815.1,0.06535
2816.6,0.06523
2818.2,0.06508
2819.7,0.06501
2821.2,0.06498
2822.8,0.06493
2824.3,0.06498
2825.9,0.06493
2827.4,0.06474
2828.9,0.06474
2830.5,0.06477
2832.0,0.0647
2833.6,0.06459
2835.1,0.06458
2836.7,0.06459
2838.2,0.06455
2839.8,0.06455
2841.3,0.06455
2842.9,0.06444
2844.4,0.06436
2846.0,0.06417
2847.6,0.06405
2849.1,0.06418
2850.7,0.06422
2852.3,0.06404
2853.8,0.06397
2855.4,0.064
2857.0,0.06392
2858.6,0.06389
2860.1,0.06392
2861.7,0.06386
2863.3,0.06383
2864.9,0.06382
2866.5,0.06383
2868.1,0.06375
2869.6,0.06372
2871.2,0.06373
2872.8,0.06368
2874.4,0.06368
2876.0,0.06364
2877.6,0.06353
2879.2,0.06348
2880.8,0.06343
2882.4,0.06345
2884.0,0.06342
2885.6,0.0634
2887.2,0.06344
2888.8,0.06347
2890.4,0.06339
2892.0,0.06331
2893.6,0.06339
2895.3,0.06351
2896.9,0.06339
2898.5,0.06323
2900.1,0.06326
2901.8,0.06332
2903.4,0.06332
2905.0,0.06324
2906.6,0.06322
2908.3,0.0633
2909.9,0.0633
2911.5,0.06332
2913.2,0.06323
2914.8,0.06305
2916.4,0.06304
2918.1,0.06316
2919.7,0.06321
2921.4,0.0632
2923.0,0.06309
2924.7,0.06301
2926.3,0.06306
2928.0,0.06319
2929.6,0.06324
2931.3,0.06318
2932.9,0.06305
2934.6,0.06304
2936.3,0.06307
2937.9,0.06307
2939.6,0.06311
2941.3,0.06312
2942.9,0.06307
2944.6,0.06307
2946.3,0.06305
2947.9,0.06304
2949.6,0.06308
2951.3,0.06308
2953.0,0.06309
2954.7,0.06302
2956.3,0.06299
2958.0,0.06297
2959.7,0.06299
2961.4,0.06309
2963.1,0.06309
2964.8,0.06313
2966.5,0.06307
2968.2,0.06296
2969.9,0.063
2971.6,0.06297
2973.3,0.06295
2975.0,0.06301
2976.7,0.06302
2978.4,0.06303
2980.1,0.06306
2981.9,0.06311
2983.6,0.06302
2985.3,0.0629
2987.0,0.06294
2988.7,0.06305
2990.4,0.06307
2992.2,0.06304
2993.9,0.06305
2995.6,0.06302
2997.4,0.06297
2999.1,0.06306
3000.8,0.06306
3002.6,0.06298
3004.3,0.06301
3006.1,0.06309
3007.8,0.06308
3009.5,0.06299
3011.3,0.063
3013.0,0.06304
3014.8,0.06306
3016.5,0.06309
3018.3,0.0631
3020.1,0.06304
3021.8,0.06295
3023.6,0.06291
3025.3,0.06296
3027.1,0.06297
3028.9,0.06302
3030.6,0.06311
3032.4,0.06312
3034.2,0.06302
3036.0,0.06288
3037.7,0.06287
3039.5,0.06288
3041.3,0.06292
3043.1,0.06301
3044.9,0.063
3046.7,0.06293
3048.5,0.06293
3050.3,0.06286
3052.1,0.06283
3053.8,0.06281
3055.6,0.06278
3057.4,0.06284
3059.3,0.06289
3061.1,0.06281
3062.9,0.06279
3064.7,0.06292
3066.5,0.063
3068.3,0.0629
3070.1,0.0628
3071.9,0.06281
3073.8,0.06284
3075.6,0.06291
3077.4,0.06292
3079.2,0.06276
3081.1,0.06277
3082.9,0.06287
3084.7,0.06281
3086.6,0.06272
3088.4,0.06281
3090.2,0.0629
3092.1,0.06282
3093.9,0.0628
3095.8,0.06285
3097.6,0.06285
3099.5,0.06285
3101.3,0.06283
3103.2,0.06282
3105.1,0.0628
3106.9,0.06285
3108.8,0.06288
3110.6,0.06287
3112.5,0.0628
3114.4,0.06281
3116.2,0.06289
3118.1,0.06295
3120.0,0.06291
3121.9,0.06294
3123.8,0.06306
3125.6,0.06309
3127.5,0.06312
3129.4,0.06314
3131.3,0.06314
3133.2,0.06315
3135.1,0.06317
3137.0,0.06314
3138.9,0.06313
3140.8,0.06319
3142.7,0.06327
3144.6,0.06331
3146.5,0.06339
3148.4,0.0634
3150.3,0.06332
3152.2,0.06342
3154.1,0.06353
3156.1,0.06356
3158.0,0.06355
3159.9,0.06357
3161.8,0.06359
3163.8,0.06362
3165.7,0.0637
3167.6,0.0638
3169.6,0.06389
3171.5,0.06392
3173.5,0.06395
3175.4,0.06405
3177.3,0.06416
3179.3,0.06421
3181.2,0.06419
3183.2,0.06425
3185.1,0.06435
3187.1,0.06446
3189.1,0.06459
3191.0,0.06463
3193.0,0.06467
3195.0,0.06471
3196.9,0.06474
3198.9,0.06486
3200.9,0.06499
3202.9,0.06501
3204.8,0.06502
3206.8,0.06508
3208.8,0.06516
3210.8,0.06523
3212.8,0.06537
3214.8,0.06547
3216.8,0.06553
3218.8,0.06562
3220.8,0.06565
3222.8,0.0657
3224.8,0.06579
3226.8,0.06585
3228.8,0.0659
3230.8,0.066
3232.8,0.06604
3234.8,0.06604
3236.8,0.06609
3238.9,0.06616
3240.9,0.06624
3242.9,0.06632
3244.9,0.06638
3247.0,0.06643
3249.0,0.06648
3251.1,0.06659
3253.1,0.06679
3255.1,0.06688
3257.2,0.06691
3259.2,0.06695
3261.3,0.06706
3263.3,0.06713
3265.4,0.06712
3267.4,0.06706
3269.5,0.06717
3271.6,0.06738
3273.6,0.06742
3275.7,0.06741
3277.8,0.06753
3279.8,0.06771
3281.9,0.06778
3284.0,0.06783
3286.1,0.06789
3288.2,0.0679
3290.2,0.06798
3292.3,0.06809
3294.4,0.06812
3296.5,0.06812
3298.6,0.06817
3300.7,0.06823
3302.8,0.06828
3304.9,0.06838
3307.0,0.06847
3309.1,0.06851
3311.3,0.06856
3313.4,0.06868
3315.5,0.06881
3317.6,0.06885
3319.7,0.06892
3321.9,0.06905
3324.0,0.06914
3326.1,0.06914
3328.3,0.06915
3330.4,0.06922
3332.5,0.06932
3334.7,0.06944
3336.8,0.0695
3339.0,0.06963
3341.1,0.06975
3343.3,0.06979
3345.4,0.06986
3347.6,0.06994
3349.8,0.06995
3351.9,0.06997
3354.1,0.07004
3356.3,0.07006
3358.4,0.07011
3360.6,0.07011
3362.8,0.07013
3365.0,0.07021
3367.2,0.07028
3369.4,0.0704
3371.5,0.07043
3373.7,0.07036
3375.9,0.07036
3378.1,0.07041
3380.3,0.07045
3382.5,0.07049
3384.7,0.07047
3386.9,0.07051
3389.2,0.07056
3391.4,0.0706
3393.6,0.07064
3395.8,0.0707
3398.1,0.07069
3400.3,0.07063
3402.5,0.07065
3404.7,0.07063
3407.0,0.0706
3409.2,0.07064
3411.5,0.07065
3413.7,0.07068
3416.0,0.07076
3418.2,0.07077
3420.5,0.07083
3422.7,0.07096
3425.0,0.07105
3427.3,0.07109
3429.5,0.07116
3431.8,0.07127
3434.1,0.07141
3436.3,0.07146
3438.6,0.07151
3440.9,0.07168
3443.2,0.07172
3445.5,0.07169
3447.8,0.07171
3450.1,0.0718
3452.4,0.07195
3454.6,0.07201
3456.9,0.07203
3459.3,0.07208
3461.6,0.07216
3463.9,0.07222
3466.2,0.07225
3468.5,0.07226
3470.8,0.07231
3473.2,0.07241
3475.5,0.07245
3477.8,0.07249
3480.1,0.07252
3482.5,0.07257
3484.8,0.07265
3487.2,0.07264
3489.5,0.0726
3491.9,0.07263
3494.2,0.07268
3496.6,0.07271
3498.9,0.0727
3501.3,0.07274
3503.7,0.07275
3506.0,0.07282
3508.4,0.07295
3510.8,0.07299
3513.2,0.07305
3515.5,0.07316
3517.9,0.07322
3520.3,0.07331
3522.7,0.07344
3525.1,0.07348
3527.5,0.07354
3529.9,0.07366
3532.3,0.07376
3534.7,0.07382
3537.1,0.07383
3539.5,0.07391
3541.9,0.07397
3544.4,0.07402
3546.8,0.07407
3549.2,0.07405
3551.7,0.07412
3554.1,0.07422
3556.5,0.07426
3559.0,0.07429
3561.4,0.07434
3563.9,0.0744
3566.3,0.07442
3568.8,0.07438
3571.2,0.07449
3573.7,0.0746
3576.1,0.07461
3578.6,0.07464
3581.1,0.07471
3583.6,0.07476
3586.0,0.07481
3588.5,0.07481
3591.0,0.07481
3593.5,0.07492
3596.0,0.07497
3598.5,0.075
3601.0,0.07502
3603.5,0.075
3606.0,0.075
3608.5,0.07509
3611.0,0.07514
3613.5,0.07514
3616.1,0.07521
3618.6,0.07521
3621.1,0.07528
3623.6,0.07538
3626.2,0.0754
3628.7,0.07544
3631.3,0.07543
3633.8,0.07548
3636.3,0.07562
3638.9,0.07563
3641.4,0.07562
3644.0,0.07567
3646.6,0.07573
3649.1,0.07574
3651.7,0.07573
3654.3,0.07577
3656.9,0.07579
3659.4,0.07581
3662.0,0.07588
3664.6,0.07593
3667.2,0.07595
3669.8,0.07596
3672.4,0.076
3675.0,0.07599
3677.6,0.07605
3680.2,0.07616
3682.8,0.0762
3685.4,0.07624
3688.1,0.07626
3690.7,0.07625
3693.3,0.07628
3695.9,0.07625
3698.6,0.0763
3701.2,0.07635
3703.9,0.07644
3706.5,0.07649
3709.2,0.07638
3711.8,0.07636
3714.5,0.07647
3717.1,0.07656
3719.8,0.07659
3722.5,0.07662
3725.2,0.07667
3727.8,0.07671
3730.5,0.07674
3733.2,0.0768
3735.9,0.07686
3738.6,0.07687
3741.3,0.07684
3744.0,0.07686
3746.7,0.07693
3749.4,0.077
3752.1,0.07701
3754.8,0.07698
3757.6,0.07701
3760.3,0.07707
3763.0,0.07712
3765.7,0.07717
3768.5,0.07727
3771.2,0.07729
3774.0,0.07727
3776.7,0.07722
3779.5,0.07726
3782.2,0.07734
3785.0,0.07736
3787.7,0.07734
3790.5,0.07736
3793.3,0.07742
3796.1,0.07739
3798.8,0.07741
3801.6,0.07748
3804.4,0.07752
3807.2,0.07756
3810.0,0.07762
3812.8,0.07764
3815.6,0.07764
3818.4,0.07767
3821.2,0.07771
3824.1,0.07771
3826.9,0.07776
3829.7,0.07778
3832.5,0.07777
3835.4,0.07778
3838.2,0.07785
3841.1,0.07789
3843.9,0.07786
3846.8,0.07785
3849.6,0.07795
3852.5,0.07801
3855.3,0.07804
3858.2,0.07804
3861.1,0.07803
3863.9,0.07808
3866.8,0.07812
3869.7,0.07813
3872.6,0.07812
3875.5,0.07818
3878.4,0.07818
3881.3,0.07818
3884.2,0.07819
3887.1,0.07818
3890.0,0.07823
3893.0,0.07829
3895.9,0.07834
3898.8,0.07829
3901.7,0.0783
3904.7,0.07843
3907.6,0.07846
3910.6,0.07844
3913.5,0.07847
3916.5,0.07852
3919.4,0.0785
3922.4,0.07849
3925.4,0.07854
3928.4,0.07862
3931.3,0.0786
3934.3,0.0786
3937.3,0.07863
3940.3,0.07865
3943.3,0.0787
3946.3,0.0787
3949.3,0.0787
3952.3,0.07878
3955.3,0.0788
3958.3,0.07876
3961.4,0.07878
3964.4,0.07882
3967.4,0.07888
3970.5,0.07891
3973.5,0.07887
3976.6,0.07885
3979.6,0.0789
3982.6,0.07895
3985.7,0.07898
3988.8,0.07898
3991.9,0.07896
3994.9,0.07899
3998.0,0.07905
4001.1,0.07904
4004.2,0.07902
4007.3,0.07905
4010.4,0.07907
4013.5,0.07908
4016.6,0.07909
4019.7,0.07909
4022.8,0.07908
4025.9,0.07906
4029.1,0.0791
4032.2,0.0792
4035.3,0.07923
4038.5,0.07923
4041.6,0.07924
4044.8,0.07926
4047.9,0.0793
4051.1,0.07925
4054.3,0.0792
4057.4,0.07923
4060.6,0.07925
4063.8,0.07929
4067.0,0.07933
4070.2,0.07936
4073.4,0.07932
4076.6,0.07926
4079.8,0.0793
4083.0,0.07936
4086.2,0.07934
4089.4,0.07937
4092.7,0.07937
4095.9,0.07941
4099.1,0.07949
4102.4,0.0795
4105.6,0.07943
4108.9,0.07941
4112.1,0.07947
4115.4,0.07951
4118.7,0.07952
4122.0,0.07951
4125.2,0.07947
4128.5,0.07949
4131.8,0.07954
4135.1,0.07954
4138.4,0.07952
4141.7,0.07953
4145.0,0.07952
4148.3,0.07949
4151.6,0.07949
4155.0,0.07954
4158.3,0.07959
4161.6,0.0796
4165.0,0.07964
4168.3,0.07968
4171.7,0.07969
4175.0,0.07969
4178.4,0.07967
4181.8,0.07963
4185.2,0.07959
4188.5,0.07958
4191.9,0.07958
4195.3,0.07962
4198.7,0.07964
4202.1,0.07968
4205.5,0.07971
4208.9,0.07967
4212.4,0.07967
4215.8,0.07974
4219.2,0.07975
4222.6,0.07976
4226.1,0.0798
4229.5,0.07984
4233.0,0.07983
4236.5,0.07978
4239.9,0.07969
4243.4,0.07971
4246.9,0.07975
4250.3,0.07977
4253.8,0.07976
4257.3,0.07979
4260.8,0.07982
4264.3,0.07975
4267.8,0.07973
4271.3,0.07973
4274.9,0.07973
4278.4,0.07978
4281.9,0.07979
4285.5,0.07978
4289.0,0.07978
4292.6,0.07985
4296.1,0.07987
4299.7,0.07984
4303.3,0.07984
4306.8,0.07985
4310.4,0.07979
4314.0,0.07976
4317.6,0.07982
4321.2,0.07987
4324.8,0.07989
4328.4,0.07991
4332.0,0.07993
4335.6,0.07989
4339.3,0.07984
4342.9,0.07984
4346.5,0.07983
4350.2,0.07988
4353.8,0.07991
4357.5,0.07989
4361.1,0.07987
4364.8,0.07986
4368.5,0.07988
4372.2,0.07993
4375.9,0.07992
4379.6,0.07987
4383.3,0.07992
4387.0,0.07998
4390.7,0.07995
4394.4,0.07996
4398.1,0.07999
4401.9,0.07998
4405.6,0.07996
4409.4,0.08001
4413.1,0.08002
4416.9,0.07999
4420.6,0.07997
4424.4,0.07994
4428.2,0.07992
4432.0,0.07994
4435.8,0.07994
4439.6,0.07993
4443.4,0.07998
4447.2,0.08001
4451.0,0.07998
4454.8,0.07998
4458.6,0.07996
4462.5,0.07994
4466.3,0.07995
4470.2,0.07995
4474.0,0.07989
4477.9,0.07991
4481.8,0.07996
4485.6,0.07997
4489.5,0.07992
4493.4,0.0799
4497.3,0.07992
4501.2,0.07989
4505.1,0.07988
4509.0,0.07992
4513.0,0.07991
4516.9,0.07992
4520.9,0.07993
4524.8,0.07993
4528.7,0.07991
4532.7,0.07993
4536.7,0.07993
4540.6,0.07992
4544.6,0.07991
4548.6,0.07989
4552.6,0.07985
4556.6,0.07981
4560.6,0.07979
4564.6,0.07977
4568.6,0.0798
4572.7,0.07983
4576.7,0.0798
4580.8,0.07979
4584.8,0.07978
4588.9,0.07977
4592.9,0.07974
4597.0,0.07971
4601.1,0.07969
4605.2,0.07967
4609.3,0.07963
4613.4,0.07962
4617.5,0.0796
4621.6,0.07959
4625.7,0.07955
4629.8,0.07953
4634.0,0.0795
4638.1,0.07946
4642.3,0.07947
4646.4,0.07943
4650.6,0.07935
4654.8,0.07927
4659.0,0.07925
4663.1,0.07929
4667.3,0.07929
4671.5,0.07927
4675.8,0.07921
4680.0,0.07918
4684.2,0.07915
4688.4,0.0791
4692.7,0.07907
4696.9,0.07906
4701.2,0.07904
4705.5,0.07905
4709.7,0.07906
4714.0,0.07901
4718.3,0.07893
4722.6,0.07887
4726.9,0.07885
4731.2,0.07885
4735.5,0.07883
4739.9,0.07885
4744.2,0.07884
4748.5,0.0788
4752.9,0.07875
4757.3,0.07872
4761.6,0.07864
4766.0,0.07856
4770.4,0.07856
4774.8,0.07857
4779.2,0.07855
4783.6,0.07851
4788.0,0.07845
4792.4,0.07839
4796.9,0.07834
4801.3,0.0783
4805.8,0.07825
4810.2,0.07822
4814.7,0.07817
4819.1,0.07813
4823.6,0.07812
4828.1,0.07806
4832.6,0.07801
4837.1,0.07794
4841.6,0.0779
4846.2,0.0779
4850.7,0.0778
4855.3,0.07772
4859.8,0.07767
4864.4,0.0776
4868.9,0.0775
4873.5,0.07739
4878.1,0.07736
4882.7,0.07731
4887.3,0.07717
4891.9,0.07708
4896.5,0.07698
4901.1,0.07686
4905.8,0.07671
4910.4,0.07653
4915.1,0.07643
4919.7,0.0764
4924.4,0.07627
4929.1,0.07611
4933.8,0.07603
4938.5,0.07598
4943.2,0.07587
4947.9,0.0758
4952.6,0.07575
4957.4,0.0757
4962.1,0.07568
4966.9,0.07565
4971.6,0.07561
4976.4,0.07565
4981.2,0.07565
4986.0,0.07565
4990.8,0.07567
4995.6,0.07568
5000.4,0.0757
5005.2,0.07574
5010.0,0.0757
5014.9,0.07566
5019.8,0.07566
5024.6,0.07562
5029.5,0.07559
5034.4,0.07563
5039.3,0.07562
5044.2,0.07556
5049.1,0.07553
5054.0,0.07549
5058.9,0.07544
5063.9,0.07538
5068.8,0.07528
5073.8,0.07521
5078.8,0.07515
5083.7,0.07509
5088.7,0.07502
5093.7,0.07496
5098.7,0.07491
5103.7,0.07483
5108.8,0.07471
5113.8,0.07465
5118.9,0.07461
5123.9,0.07455
5129.0,0.07445
5134.1,0.07436
5139.1,0.07433
5144.3,0.07429
5149.4,0.07418
5154.5,0.07408
5159.6,0.07406
5164.7,0.07406
5169.9,0.07405
5175.0,0.07401
5180.2,0.07398
5185.4,0.07397
5190.6,0.07395
5195.8,0.07394
5201.0,0.07397
5206.2,0.07398
5211.5,0.07392
5216.7,0.07389
5222.0,0.0739
5227.2,0.07392
5232.5,0.07394
5237.8,0.07395
5243.1,0.07395
5248.4,0.07393
5253.7,0.07394
5259.0,0.07399
5264.4,0.07406
5269.7,0.0741
5275.1,0.0741
5280.5,0.0741
5285.8,0.07411
5291.2,0.07415
5296.6,0.07414
5302.0,0.07413
5307.5,0.07414
5312.9,0.07411
5318.4,0.07413
5323.8,0.07419
5329.3,0.07422
5334.8,0.07418
5340.3,0.07411
5345.8,0.07407
5351.3,0.07409
5356.8,0.07403
5362.4,0.07395
5367.9,0.07393
5373.5,0.07391
5379.0,0.07385
5384.6,0.07376
5390.2,0.07365
5395.8,0.07353
5401.5,0.07345
5407.1,0.07338
5412.7,0.07329
5418.4,0.07325
5424.1,0.07318
5429.7,0.07302
5435.4,0.0729
5441.1,0.07279
5446.9,0.07272
5452.6,0.07267
5458.3,0.07264
5464.1,0.07262
5469.8,0.07258
5475.6,0.07253
5481.4,0.07248
5487.2,0.07244
5493.0,0.07244
5498.8,0.07246
5504.7,0.07242
5510.5,0.07241
5516.4,0.07243
5522.3,0.0724
5528.1,0.07235
5534.0,0.07229
5540.0,0.0722
5545.9,0.0721
5551.8,0.07198
5557.8,0.0718
5563.7,0.07163
5569.7,0.07141
5575.7,0.07118
5581.7,0.07087
5587.7,0.07058
5593.7,0.07035
5599.8,0.07009
5605.8,0.06985
5611.9,0.06963
5618.0,0.06942
5624.1,0.06924
5630.2,0.06918
5636.3,0.06923
5642.4,0.0693
5648.6,0.06933
5654.7,0.06939
5660.9,0.06946
5667.1,0.06958
5673.3,0.06981
5679.5,0.07002
5685.7,0.0702
5692.0,0.07042
5698.2,0.07062
5704.5,0.07083
5710.8,0.07108
5717.1,0.0712
5723.4,0.07134
5729.7,0.07151
5736.0,0.07168
5742.4,0.07179
5748.8,0.07192
5755.1,0.07194
5761.5,0.07206
5768.0,0.07213
5774.4,0.07197
5780.8,0.07188
5787.3,0.07181
5793.7,0.07174
5800.2,0.07168
5806.7,0.07158
5813.2,0.07156
5819.8,0.07154
5826.3,0.07139
5832.8,0.07127
5839.4,0.07114
5846.0,0.07098
5852.6,0.07084
5859.2,0.07075
5865.8,0.07066
5872.5,0.07055
5879.1,0.07053
5885.8,0.0704
5892.5,0.07036
5899.2,0.07023
5905.9,0.07001
5912.6,0.06988
5919.4,0.06975
5926.2,0.06963
5932.9,0.06959
5939.7,0.06936
5946.5,0.06904
5953.4,0.06881
5960.2,0.06857
5967.1,0.06843
5974.0,0.06815
5980.8,0.06789
5987.8,0.06781
5994.7,0.06766
6001.6,0.06749
6008.6,0.06742
6015.5,0.06739
6022.5,0.06746
6029.5,0.06763
6036.5,0.06788
6043.6,0.06826
6050.6,0.0686
6057.7,0.06873
6064.8,0.06899
6071.9,0.06927
6079.0,0.06942
6086.1,0.06955
6093.3,0.06973
6100.5,0.0699
6107.6,0.07008
6114.9,0.07018
6122.1,0.07011
6129.3,0.0701
6136.5,0.07013
6143.8,0.07016
6151.1,0.07015
6158.4,0.07016
6165.7,0.07014
6173.1,0.07006
6180.4,0.07007
6187.8,0.07003
6195.2,0.06986
6202.6,0.06977
6210.0,0.06969
6217.5,0.06961
6225.0,0.06949
6232.4,0.06941
6239.9,0.06931
6247.5,0.06919
6255.0,0.06913
6262.5,0.0691
6270.1,0.0691
6277.7,0.06911
6285.3,0.06904
6292.9,0.06901
6300.6,0.06907
6308.3,0.06908
6315.9,0.0691
6323.6,0.06921
6331.4,0.06937
6339.1,0.06954
6346.9,0.06963
6354.6,0.06966
6362.4,0.06976
6370.3,0.06986
6378.1,0.06985
6385.9,0.0699
6393.8,0.06989
6401.7,0.06988
6409.6,0.07006
6417.6,0.07013
6425.5,0.06998
6433.5,0.0699
6441.5,0.06988
6449.5,0.06985
6457.5,0.06978
6465.6,0.06976
6473.6,0.06976
6481.7,0.06968
6489.8,0.06965
6498.0,0.06953
6506.1,0.06938
6514.3,0.06935
6522.5,0.06925
6530.7,0.06908
6538.9,0.06901
6547.2,0.06895
6555.5,0.06886
6563.8,0.06887
6572.1,0.06887
6580.4,0.06865
6588.8,0.06849
6597.2,0.06839
6605.6,0.06827
6614.0,0.06819
6622.5,0.06815
6630.9,0.0682
6639.4,0.06816
6647.9,0.0679
6656.5,0.06776
6665.0,0.06772
6673.6,0.06763
6682.2,0.06755
6690.8,0.06744
6699.5,0.06739
6708.1,0.06736
6716.8,0.06732
6725.5,0.06731
6734.3,0.06733
6743.0,0.06728
6751.8,0.06725
6760.6,0.06718
6769.4,0.06712
6778.3,0.06706
6787.1,0.06696
6796.0,0.0668
6805.0,0.06669
6813.9,0.06664
6822.9,0.06663
6831.9,0.06658
6840.9,0.06646
6849.9,0.06642
6859.0,0.06642
6868.0,0.06628
6877.2,0.06613
6886.3,0.06605
6895.5,0.06601
6904.6,0.06594
6913.8,0.06581
6923.1,0.06577
6932.3,0.06573
6941.6,0.06566
6950.9,0.06564
6960.2,0.06559
6969.6,0.06546
6979.0,0.06537
6988.4,0.06529
6997.8,0.06519
7007.3,0.06502
7016.8,0.06486
7026.3,0.06473
7035.8,0.0646
7045.4,0.06451
7054.9,0.06432
7064.5,0.06418
7074.2,0.06408
7083.9,0.06399
7093.5,0.06384
7103.3,0.06372
7113.0,0.06359
7122.8,0.06345
7132.6,0.06331
7142.4,0.0632
7152.2,0.06309
7162.1,0.063
7172.0,0.06286
7182.0,0.06262
7191.9,0.06243
7201.9,0.06232
7211.9,0.06217
7222.0,0.06197
7232.0,0.06186
7242.1,0.06178
7252.3,0.06163
7262.4,0.06147
7272.6,0.06134
7282.8,0.0612
7293.1,0.06105
7303.3,0.06095
7313.6,0.06081
7324.0,0.06065
7334.3,0.06054
7344.7,0.06038
7355.1,0.06015
7365.6,0.05999
7376.1,0.05986
7386.6,0.0597
7397.1,0.05955
7407.7,0.05934
7418.3,0.05921
7428.9,0.05911
7439.6,0.05893
7450.3,0.05883
7461.0,0.0587
7471.7,0.05854
7482.5,0.05839
7493.3,0.05825
7504.2,0.05811
7515.0,0.05801
7525.9,0.0579
7536.9,0.05778
7547.9,0.05766
7558.9,0.05755
7569.9,0.05742
7581.0,0.05733
7592.0,0.05725
7603.2,0.05715
7614.4,0.05705
7625.5,0.05704
7636.8,0.05706
7648.0,0.05695
7659.3,0.05685
7670.7,0.05679
7682.0,0.0567
7693.4,0.05665
7704.9,0.05656
7716.3,0.05646
7727.8,0.05634
7739.4,0.05617
7750.9,0.05603
7762.5,0.0559
7774.2,0.05575
7785.8,0.05558
7797.5,0.05537
7809.3,0.05519
7821.1,0.05502
7832.9,0.05486
7844.7,0.05474
7856.6,0.05456
7868.5,0.05438
7880.5,0.05423
7892.5,0.05401
7904.5,0.05383
7916.6,0.0536
7928.7,0.05337
7940.8,0.05313
7953.0,0.05284
7965.2,0.05254
7977.5,0.05231
7989.8,0.05204
8002.1,0.05174
8014.5,0.0514
8026.9,0.05107
8039.3,0.05071
8051.8,0.05037
8064.3,0.0501
8076.9,0.0498
8089.5,0.04942
8102.1,0.04902
8114.8,0.04865
8127.5,0.04832
8140.3,0.04792
8153.1,0.04755
8165.9,0.04718
8178.8,0.04678
8191.7,0.04642
8204.7,0.0461
8217.7,0.04568
8230.7,0.04533
8243.8,0.0451
8257.0,0.04483
8270.1,0.04447
8283.3,0.0442
8296.6,0.04395
8309.9,0.04365
8323.2,0.04335
8336.6,0.04303
8350.0,0.04269
8363.5,0.04249
8377.0,0.04228
8390.5,0.04205
8404.2,0.04178
8417.8,0.04152
8431.5,0.04129
8445.2,0.04103
8459.0,0.04075
8472.8,0.04049
8486.7,0.04029
8500.6,0.04013
8514.5,0.03991
8528.5,0.03968
8542.6,0.03952
8556.7,0.03938
8570.8,0.03918
8585.0,0.03902
8599.3,0.03889
8613.5,0.03875
8627.9,0.03857
8642.3,0.03828
8656.7,0.03784
8671.2,0.03727
8685.7,0.03664
8700.3,0.03622
8714.9,0.03608
8729.6,0.03612
8744.3,0.0361
8759.0,0.03599
8773.9,0.03589
8788.7,0.03598
8803.7,0.03621
8818.6,0.03654
8833.7,0.03674
8848.7,0.03675
8863.8,0.03662
8879.0,0.03648
8894.3,0.03628
8909.5,0.03611
8924.9,0.03604
8940.3,0.03604
8955.7,0.036
8971.2,0.03596
8986.8,0.03579
9002.3,0.03552
9018.0,0.03525
9033.7,0.03496
9049.5,0.03461
9065.3,0.03429
9081.2,0.03401
9097.1,0.03386
9113.1,0.03369
9129.1,0.03362
9145.2,0.03365
9161.4,0.03367
9177.6,0.03371
9193.9,0.03376
9210.2,0.03392
9226.6,0.03422
9243.0,0.03448
9259.5,0.03479
9276.1,0.03513
9292.7,0.0355
9309.4,0.03587
9326.2,0.03628
9343.0,0.0368
9359.8,0.03734
9376.8,0.03783
9393.7,0.03826
9410.8,0.03862
9427.9,0.03898
9445.1,0.0393
9462.3,0.03959
9479.6,0.03987
9497.0,0.04009
9514.4,0.04014
9531.9,0.04018
9549.4,0.04006
9567.1,0.03988
9584.7,0.03962
9602.5,0.03923
9620.3,0.03888
9638.2,0.03856
9656.1,0.0382
9674.2,0.03784
9692.2,0.03753
9710.4,0.03732
9728.6,0.03701
9746.9,0.03667
9765.2,0.03639
9783.7,0.03626
9802.2,0.03617
9820.7,0.03609
9839.4,0.03608
9858.1,0.03601
9876.8,0.03587
9895.7,0.03592
9914.6,0.03592
9933.6,0.03595
9952.7,0.03609
9971.8,0.03626
9991.0,0.03638
10010.3,0.03647
10029.7,0.03657
10049.1,0.03668
10068.6,0.03673
10088.2,0.03671
10107.9,0.03675
10127.6,0.03671
10147.4,0.03656
10167.3,0.0365
10187.3,0.03646
10207.4,0.03646
10227.5,0.03644
10247.7,0.03652
10268.0,0.03664
10288.4,0.03671
10308.8,0.03686
10329.4,0.03706
10350.0,0.03731
10370.7,0.03758
10391.5,0.03768
10412.3,0.0379
10433.3,0.03828
10454.3,0.03881
10475.5,0.03948
10496.7,0.04045
10517.9,0.04154
10539.3,0.04252
10560.8,0.04315
10582.3,0.04353
10604.0,0.04384
10625.7,0.04404
10647.5,0.04399
10669.4,0.04386
10691.4,0.04375
10713.5,0.04365
10735.7,0.04352
10758.0,0.04328
10780.3,0.04301
10802.8,0.04268
10825.4,0.04237
10848.0,0.04203
10870.8,0.04166
10893.6,0.04137
10916.5,0.04099
10939.5,0.04069
10962.7,0.04052
10985.9,0.04034
11009.2,0.04016
11032.7,0.04012
11056.2,0.03998
11079.8,0.03988
11103.5,0.04002
11127.3,0.04026
11151.3,0.04037
11175.3,0.04057
11199.5,0.04076
11223.7,0.04106
11248.0,0.04143
11272.5,0.04165
11297.1,0.04178
11321.7,0.04195
11346.5,0.04194
11371.4,0.04184
11396.4,0.04163
11421.5,0.04121
11446.7,0.0406
11472.0,0.03985
11497.5,0.03897
11523.0,0.03807
11548.7,0.0371
11574.4,0.0364
11600.3,0.03596
11626.3,0.03552
11652.5,0.03506
11678.7,0.03467
11705.1,0.03437
11731.6,0.0343
11758.2,0.03403
11784.9,0.03345
11811.7,0.03294
11838.7,0.03269
11865.8,0.0325
11893.0,0.03257
11920.3,0.03313
11947.8,0.03412
11975.4,0.0352
12003.1,0.03617
12031.0,0.03705
12059.0,0.03794
12087.1,0.03864
12115.3,0.03947
12143.7,0.04011
12172.2,0.04066
12200.8,0.04123
12229.6,0.04175
12258.5,0.04235
12287.6,0.04308
12316.8,0.04372
12346.1,0.04414
12375.5,0.0445
12405.2,0.04497
12434.9,0.04525
12464.8,0.04549
12494.8,0.04587
12525.0,0.04616
12555.3,0.04629
12585.8,0.04654
12616.4,0.04688
12647.2,0.04703
12678.1,0.04718
12709.2,0.04729
12740.4,0.04732
12771.8,0.04748
12803.3,0.04761
12835.0,0.04763
12866.9,0.0477
12898.9,0.04773
12931.1,0.04765
12963.4,0.04739
12995.9,0.04713
13028.5,0.04702
13061.3,0.04686
13094.3,0.04643
13127.5,0.04581
13160.8,0.04529
13194.3,0.04477
13228.0,0.04425
13261.8,0.04354
13295.8,0.04291
13330.0,0.04213
13364.3,0.04123
13398.9,0.04047
13433.6,0.03974
13468.5,0.03887
13503.5,0.038
13538.8,0.03724
13574.2,0.03656
13609.9,0.03593
13645.7,0.0357
13681.7,0.03561
13717.9,0.03551
13754.3,0.03536
13790.8,0.03518
13827.6,0.03525
13864.6,0.03542
13901.8,0.03547
13939.1,0.03571
13976.7,0.03597
14014.5,0.0359
14052.5,0.03549
14090.7,0.03531
14129.0,0.03513
14167.7,0.03479
14206.5,0.03433
14245.5,0.03372
14284.7,0.03328
14324.2,0.03282
14363.9,0.0323
14403.8,0.03172
14443.9,0.03098
14484.2,0.03032
14524.8,0.02984
14565.6,0.02938
14606.7,0.02874
14647.9,0.02835
14689.4,0.02819
14731.2,0.02803
14773.1,0.02781
14815.3,0.02761
14857.8,0.02747
14900.5,0.02761
14943.4,0.02758
14986.6,0.02742
15030.0,0.02731
15073.7,0.02714
15117.7,0.02694
15161.9,0.02682
15206.3,0.02665
15251.1,0.02667
15296.1,0.02638
15341.3,0.026
15386.8,0.02594
15432.6,0.02621
15478.7,0.02639
15525.0,0.02669
15571.7,0.02708
15618.6,0.02755
15665.8,0.02776
15713.2,0.02794
15761.0,0.02791
15809.0,0.02789
15857.4,0.02788
15906.0,0.028
15955.0,0.02842
16004.2,0.02873
16053.8,0.02897
16103.6,0.02937
16153.8,0.02964
16204.3,0.02981
16255.1,0.02989
16306.2,0.03017
16357.6,0.03017
16409.4,0.03013
16461.5,0.0302
16513.9,0.03054
16566.7,0.03085
16619.8,0.03097
16673.2,0.03138
16727.0,0.03166
16781.1,0.03181
16835.6,0.03212
16890.5,0.03207
16945.7,0.03185
17001.2,0.03191
17057.2,0.03199
17113.4,0.03166
17170.1,0.03157
17227.2,0.03152
17284.6,0.03167
17342.4,0.032
17400.6,0.03242
17459.2,0.03234
17518.2,0.03249
17577.5,0.03271
17637.3,0.03295
17697.5,0.03304
17758.1,0.03322
17819.2,0.03347
17880.6,0.03346
17942.5,0.03354
18004.8,0.03392
18067.5,0.03394
18130.7,0.03377
18194.3,0.0342
18258.4,0.03532
18322.9,0.03559
18387.9,0.03553
18453.3,0.03619
18519.2,0.03686
18585.6,0.03701
18652.4,0.03724
18719.8,0.03768
18787.6,0.03884
18855.9,0.03986
18924.8,0.04018
18994.1,0.04066
19063.9,0.04125
19134.3,0.04138
19205.1,0.04137
19276.5,0.04117
19348.4,0.04106
19420.9,0.04111
19493.9,0.04098
19567.5,0.04034
19641.6,0.04003
19716.3,0.03993
19791.5,0.03976
19867.4,0.03925
19943.8,0.03921
20020.8,0.03881
20098.4,0.03807
20176.6,0.03765
20255.4,0.03708
20334.8,0.03602
20414.9,0.03492
20495.6,0.03361
20576.9,0.03266
20658.9,0.03201
20741.5,0.03121
20824.8,0.03069
20908.8,0.03093
20993.4,0.03156
21078.8,0.03217
21164.8,0.03219
21251.6,0.03147
21339.0,0.03107
21427.2,0.03176
21516.1,0.03183
21605.8,0.03155
21696.2,0.03135
21787.3,0.03193
21879.3,0.03209
21972.0,0.03184
22065.5,0.03198
22159.8,0.03227
22254.9,0.03356
22350.8,0.03416
22447.5,0.03355
22545.1,0.03481
22643.6,0.0367
22742.9,0.0391
22843.1,0.04131
22944.2,0.04136
23046.2,0.03995
23149.0,0.04037
23252.8,0.04179
23357.6,0.04356
23463.3,0.04565
23569.9,0.04778
23677.6,0.04833
23786.2,0.04885
23895.8,0.05004
24006.4,0.05046
24118.1,0.05292
24230.8,0.05428
24344.5,0.05022
24459.4,0.05032
24575.3,0.05258
24692.3,0.05096
24810.4,0.049
24929.7,0.05196
25050.2,0.05452
