Database of Origin,University of Winnipeg Spectrophotometer Facility
Sample Description,Carbonaceous chondrites - RELAB archive 8. Lab-heated carbonaceous chondrites
Other Information,ncmb64F Heated Murchison 900C
Date Added,2018-07-23 23:45:16.026030

Data ID,RLA_MET_41_6        
Sample ID,Murchison
Mineral Name,Murchison
Grain Size,<63 um
Viewing Geometry,30/0/30
Resolution,5/ 0.6-129 nm
Material Class,CM2.5/2.7

Wavelength
305.0,0.046114
310.0,0.046645
315.0,0.047419
320.0,0.048524
325.0,0.049498
330.0,0.050129
335.0,0.051041
340.0,0.051784
345.0,0.052292
350.0,0.052997
355.0,0.053401
360.0,0.053772
365.0,0.054216
370.0,0.05477
375.0,0.055069
380.0,0.055374
385.0,0.055399
390.0,0.055551
395.0,0.055759
400.0,0.055515
405.0,0.055683
410.0,0.056095
415.0,0.056088
420.0,0.056611
425.0,0.056529
430.0,0.057014
435.0,0.056982
440.0,0.057047
445.0,0.057025
450.0,0.057015
455.0,0.056949
460.0,0.05692
465.0,0.056794
470.0,0.05714
475.0,0.057051
480.0,0.056889
485.0,0.056858
490.0,0.056823
495.0,0.056911
500.0,0.056764
505.0,0.05668
510.0,0.056825
515.0,0.056887
520.0,0.056874
525.0,0.056818
530.0,0.056857
535.0,0.056877
540.0,0.05682
545.0,0.056937
550.0,0.056919
555.0,0.056854
560.0,0.056972
565.0,0.056899
570.0,0.05686
575.0,0.056801
580.0,0.05696
585.0,0.057017
590.0,0.056936
595.0,0.056945
600.0,0.056899
605.0,0.056919
610.0,0.056972
615.0,0.057227
620.0,0.057344
625.0,0.057339
630.0,0.057391
635.0,0.057358
640.0,0.057105
645.0,0.057136
650.0,0.056939
655.0,0.056842
660.0,0.056786
665.0,0.056689
670.0,0.056705
675.0,0.056702
680.0,0.056608
685.0,0.056535
690.0,0.056385
695.0,0.056368
700.0,0.056378
705.0,0.056325
710.0,0.0564
715.0,0.056548
720.0,0.056475
725.0,0.056463
730.0,0.056629
735.0,0.056641
740.0,0.056451
745.0,0.056483
750.0,0.056466
755.0,0.056556
760.0,0.057115
765.0,0.057189
770.0,0.057154
775.0,0.057307
780.0,0.057245
785.0,0.056954
790.0,0.057091
795.0,0.057147
800.0,0.057006
805.0,0.056987
810.0,0.056513
815.0,0.056431
820.0,0.056597
825.0,0.056521
830.0,0.056538
835.0,0.056224
840.0,0.056423
845.0,0.05648
850.0,0.05623
855.0,0.056034
860.0,0.055933
865.0,0.055856
870.0,0.055728
875.0,0.055769
880.0,0.055742
885.0,0.055625
890.0,0.055567
895.0,0.055823
900.0,0.05574
905.0,0.055655
910.0,0.055952
915.0,0.05546
920.0,0.05555
925.0,0.055826
930.0,0.055879
935.0,0.055629
940.0,0.055792
945.0,0.055828
950.0,0.055592
955.0,0.056026
960.0,0.055787
965.0,0.055666
970.0,0.055676
975.0,0.055716
980.0,0.055788
985.0,0.055792
990.0,0.055719
995.0,0.055564
1000.0,0.055768
1005.0,0.055688
1010.0,0.055748
1015.0,0.05552
1020.0,0.055707
1025.0,0.055684
1030.0,0.055603
1035.0,0.055741
1040.0,0.055661
1045.0,0.055577
1050.0,0.055678
1055.0,0.055657
1060.0,0.055711
1065.0,0.055594
1070.0,0.055811
1075.0,0.055856
1080.0,0.055786
1085.0,0.055779
1090.0,0.055613
1095.0,0.055818
1100.0,0.055911
1105.0,0.055872
1110.0,0.055815
1115.0,0.055862
1120.0,0.055964
1125.0,0.056016
1130.0,0.056011
1135.0,0.056245
1140.0,0.055967
1145.0,0.05606
1150.0,0.056098
1155.0,0.056221
1160.0,0.056411
1165.0,0.056403
1170.0,0.05643
1175.0,0.056538
1180.0,0.056501
1185.0,0.056586
1190.0,0.056512
1195.0,0.056575
1200.0,0.056578
1205.0,0.056532
1210.0,0.05671
1215.0,0.057013
1220.0,0.05701
1225.0,0.056835
1230.0,0.057022
1235.0,0.056924
1240.0,0.056994
1245.0,0.056817
1250.0,0.056935
1255.0,0.056923
1260.0,0.056815
1265.0,0.056924
1270.0,0.057011
1275.0,0.057022
1280.0,0.056762
1285.0,0.056818
1290.0,0.057049
1295.0,0.057065
1300.0,0.057076
1305.0,0.057353
1310.0,0.057123
1315.0,0.057211
1320.0,0.057154
1325.0,0.05721
1330.0,0.057304
1335.0,0.05728
1340.0,0.057379
1345.0,0.05748
1350.0,0.057431
1355.0,0.057556
1360.0,0.057299
1365.0,0.05786
1370.0,0.057937
1375.0,0.057546
1380.0,0.057305
1385.0,0.057962
1390.0,0.057562
1395.0,0.058142
1400.0,0.058354
1405.0,0.057966
1410.0,0.058149
1415.0,0.058018
1420.0,0.058034
1425.0,0.05816
1430.0,0.058071
1435.0,0.058192
1440.0,0.058427
1445.0,0.058221
1450.0,0.058229
1455.0,0.058325
1460.0,0.058242
1465.0,0.058342
1470.0,0.058613
1475.0,0.058476
1480.0,0.058551
1485.0,0.058531
1490.0,0.058606
1495.0,0.0586
1500.0,0.058547
1505.0,0.058599
1510.0,0.058661
1515.0,0.058777
1520.0,0.058836
1525.0,0.058962
1530.0,0.058945
1535.0,0.058882
1540.0,0.059003
1545.0,0.059007
1550.0,0.059116
1555.0,0.059016
1560.0,0.059152
1565.0,0.05885
1570.0,0.059047
1575.0,0.059146
1580.0,0.059235
1585.0,0.059351
1590.0,0.059407
1595.0,0.059436
1600.0,0.059405
1605.0,0.059233
1610.0,0.059348
1615.0,0.059267
1620.0,0.059402
1625.0,0.059399
1630.0,0.059373
1635.0,0.059284
1640.0,0.059342
1645.0,0.059591
1650.0,0.05964
1655.0,0.059564
1660.0,0.059565
1665.0,0.059557
1670.0,0.059794
1675.0,0.05977
1680.0,0.060038
1685.0,0.059868
1690.0,0.059638
1695.0,0.0601
1700.0,0.059863
1705.0,0.059768
1710.0,0.059893
1715.0,0.059757
1720.0,0.05968
1725.0,0.059673
1730.0,0.059742
1735.0,0.059628
1740.0,0.059581
1745.0,0.059775
1750.0,0.059689
1755.0,0.059664
1760.0,0.059708
1765.0,0.059738
1770.0,0.059706
1775.0,0.059607
1780.0,0.059856
1785.0,0.059784
1790.0,0.059958
1795.0,0.059885
1800.0,0.059837
1805.0,0.059916
1810.0,0.059775
1815.0,0.059723
1820.0,0.0599
1825.0,0.059705
1830.0,0.059919
1835.0,0.059693
1840.0,0.06059
1845.0,0.059893
1850.0,0.060327
1855.0,0.060022
1860.0,0.06026
1865.0,0.059205
1870.0,0.059958
1875.0,0.061133
1880.0,0.060413
1885.0,0.06024
1890.0,0.060247
1895.0,0.060001
1900.0,0.060268
1905.0,0.06119
1910.0,0.060363
1915.0,0.060414
1920.0,0.060694
1925.0,0.060574
1930.0,0.060661
1935.0,0.060433
1940.0,0.060636
1945.0,0.060386
1950.0,0.060503
1955.0,0.06056
1960.0,0.060497
1965.0,0.060585
1970.0,0.060673
1975.0,0.06065
1980.0,0.060886
1985.0,0.060877
1990.0,0.060774
1995.0,0.060771
2000.0,0.060833
2005.0,0.060812
2010.0,0.060869
2015.0,0.0607
2020.0,0.060878
2025.0,0.060805
2030.0,0.060692
2035.0,0.060786
2040.0,0.060894
2045.0,0.06084
2050.0,0.061097
2055.0,0.060937
2060.0,0.060993
2065.0,0.061036
2070.0,0.061101
2075.0,0.061031
2080.0,0.060979
2085.0,0.061044
2090.0,0.060857
2095.0,0.06108
2100.0,0.061134
2105.0,0.06108
2110.0,0.061171
2115.0,0.061047
2120.0,0.061295
2125.0,0.06102
2130.0,0.061057
2135.0,0.06102
2140.0,0.060971
2145.0,0.061099
2150.0,0.061289
2155.0,0.061275
2160.0,0.06133
2165.0,0.061431
2170.0,0.061656
2175.0,0.061574
2180.0,0.061661
2185.0,0.061758
2190.0,0.06192
2195.0,0.06193
2200.0,0.061859
2205.0,0.062094
2210.0,0.062205
2215.0,0.062085
2220.0,0.062192
2225.0,0.062154
2230.0,0.062197
2235.0,0.062308
2240.0,0.062201
2245.0,0.062485
2250.0,0.062356
2255.0,0.062394
2260.0,0.06241
2265.0,0.062524
2270.0,0.062707
2275.0,0.062697
2280.0,0.062536
2285.0,0.062601
2290.0,0.062669
2295.0,0.062796
2300.0,0.062816
2305.0,0.062682
2310.0,0.062783
2315.0,0.062937
2320.0,0.062999
2325.0,0.062993
2330.0,0.062779
2335.0,0.062873
2340.0,0.062865
2345.0,0.06307
2350.0,0.062884
2355.0,0.062841
2360.0,0.062676
2365.0,0.062758
2370.0,0.062936
2375.0,0.062729
2380.0,0.062843
2385.0,0.062903
2390.0,0.06301
2395.0,0.062961
2400.0,0.063194
2405.0,0.063092
2410.0,0.063098
2415.0,0.063019
2420.0,0.063631
2425.0,0.063513
2430.0,0.063538
2435.0,0.063633
2440.0,0.063656
2445.0,0.063509
2450.0,0.063517
2455.0,0.063622
2460.0,0.063649
2465.0,0.063644
2470.0,0.063706
2475.0,0.063967
2480.0,0.063789
2485.0,0.06376
2490.0,0.063889
2495.0,0.063896
2500.0,0.063789
2502.0,0.063817
2503.2,0.063397
2504.41,0.063454
2505.62,0.063865
2506.83,0.063743
2508.05,0.063601
2509.26,0.063926
2510.48,0.064411
2511.69,0.064506
2512.91,0.064326
2514.13,0.064301
2515.35,0.064333
2516.57,0.064451
2517.79,0.064618
2519.02,0.064347
2520.24,0.063802
2521.47,0.063541
2522.69,0.063709
2523.92,0.064023
2525.15,0.064162
2526.38,0.064201
2527.61,0.064117
2528.85,0.064011
2530.08,0.063936
2531.32,0.064032
2532.55,0.064119
2533.79,0.063953
2535.03,0.06409
2536.27,0.06462
2537.51,0.064678
2538.75,0.064397
2540.0,0.064326
2541.24,0.064265
2542.49,0.064174
2543.74,0.064065
2544.99,0.064012
2546.24,0.064121
2547.49,0.064478
2548.74,0.064317
2549.99,0.064054
2551.25,0.064448
2552.5,0.064808
2553.76,0.064977
2555.02,0.064808
2556.28,0.064848
2557.54,0.064776
2558.8,0.064709
2560.07,0.064916
2561.33,0.06473
2562.6,0.064469
2563.86,0.064696
2565.13,0.064267
2566.4,0.064366
2567.67,0.064693
2568.95,0.064631
2570.22,0.064367
2571.5,0.064308
2572.77,0.064502
2574.05,0.064479
2575.33,0.064298
2576.61,0.064703
2577.89,0.064931
2579.17,0.064396
2580.46,0.064287
2581.74,0.064615
2583.03,0.064729
2584.31,0.064442
2585.6,0.063988
2586.89,0.064347
2588.19,0.064911
2589.48,0.064848
2590.77,0.064588
2592.07,0.064254
2593.36,0.064646
2594.66,0.064931
2595.96,0.064371
2597.26,0.064572
2598.56,0.064984
2599.87,0.065068
2601.17,0.064983
2602.48,0.06469
2603.78,0.06496
2605.09,0.065143
2606.4,0.064865
2607.71,0.064757
2609.03,0.065056
2610.34,0.064984
2611.66,0.064953
2612.97,0.065216
2614.29,0.065023
2615.61,0.064908
2616.93,0.065025
2618.25,0.065111
2619.57,0.065206
2620.9,0.065204
2622.22,0.065022
2623.55,0.064725
2624.88,0.064756
2626.21,0.064983
2627.54,0.064891
2628.87,0.064891
2630.21,0.065005
2631.54,0.064682
2632.88,0.06503
2634.21,0.065102
2635.55,0.064456
2636.89,0.064559
2638.24,0.064917
2639.58,0.06489
2640.92,0.065119
2642.27,0.065145
2643.62,0.06462
2644.97,0.06476
2646.32,0.064848
2647.67,0.064823
2649.02,0.065054
2650.38,0.065094
2651.73,0.064808
2653.09,0.064963
2654.45,0.065148
2655.81,0.064921
2657.17,0.06485
2658.53,0.064917
2659.89,0.064732
2661.26,0.064768
2662.63,0.064918
2664.0,0.064995
2665.36,0.064948
2666.74,0.065322
2668.11,0.065543
2669.48,0.065459
2670.86,0.065323
2672.23,0.065121
2673.61,0.065467
2674.99,0.065371
2676.37,0.065057
2677.76,0.065026
2679.14,0.065159
2680.52,0.065285
2681.91,0.065406
2683.3,0.065358
2684.69,0.064942
2686.08,0.064923
2687.47,0.065205
2688.87,0.065219
2690.26,0.065224
2691.66,0.06529
2693.06,0.065111
2694.46,0.064918
2695.86,0.065199
2697.26,0.065441
2698.66,0.065589
2700.07,0.06532
2701.48,0.065013
2702.89,0.065404
2704.3,0.06572
2705.71,0.065597
2707.12,0.065476
2708.53,0.065438
2709.95,0.065528
2711.37,0.065836
2712.79,0.065684
2714.21,0.065721
2715.63,0.065582
2717.05,0.065389
2718.48,0.065333
2719.9,0.065232
2721.33,0.06531
2722.76,0.065643
2724.19,0.065389
2725.62,0.065209
2727.06,0.065488
2728.49,0.065679
2729.93,0.065623
2731.37,0.065875
2732.81,0.065971
2734.25,0.065798
2735.69,0.065624
2737.14,0.065699
2738.58,0.065714
2740.03,0.065341
2741.48,0.064938
2742.93,0.065304
2744.38,0.065821
2745.83,0.06573
2747.29,0.065765
2748.75,0.065607
2750.2,0.06522
2751.66,0.065325
2753.13,0.065801
2754.59,0.065851
2756.05,0.065597
2757.52,0.065461
2758.99,0.065812
2760.46,0.066028
2761.93,0.065932
2763.4,0.065839
2764.87,0.065549
2766.35,0.065641
2767.82,0.065697
2769.3,0.065555
2770.78,0.065686
2772.26,0.065853
2773.75,0.065724
2775.23,0.065512
2776.72,0.065589
2778.21,0.065808
2779.7,0.065663
2781.19,0.065675
2782.68,0.066011
2784.18,0.066004
2785.67,0.065813
2787.17,0.065947
2788.67,0.066095
2790.17,0.066064
2791.67,0.065965
2793.18,0.065815
2794.68,0.065803
2796.19,0.065796
2797.7,0.065813
2799.21,0.065983
2800.72,0.065888
2802.24,0.06578
2803.75,0.065923
2805.27,0.065885
2806.79,0.065937
2808.31,0.065925
2809.83,0.065908
2811.35,0.065728
2812.88,0.065704
2814.41,0.06563
2815.93,0.065418
2817.46,0.065527
2819.0,0.06569
2820.53,0.065905
2822.07,0.065864
2823.6,0.065797
2825.14,0.065868
2826.68,0.066085
2828.22,0.065968
2829.77,0.065637
2831.31,0.065533
2832.86,0.065733
2834.41,0.066011
2835.96,0.065991
2837.51,0.06597
2839.07,0.066012
2840.62,0.065843
2842.18,0.065759
2843.74,0.065813
2845.3,0.065953
2846.86,0.065872
2848.43,0.065925
2849.99,0.066243
2851.56,0.066437
2853.13,0.066062
2854.7,0.065724
2856.27,0.066193
2857.85,0.066295
2859.42,0.065925
2861.0,0.065955
2862.58,0.066151
2864.16,0.065651
2865.75,0.065486
2867.33,0.065767
2868.92,0.066128
2870.51,0.06597
2872.1,0.065773
2873.69,0.065859
2875.28,0.06603
2876.88,0.066371
2878.48,0.066621
2880.07,0.066471
2881.68,0.066278
2883.28,0.066193
2884.88,0.066062
2886.49,0.065876
2888.1,0.066043
2889.71,0.06612
2891.32,0.06593
2892.93,0.066122
2894.55,0.066369
2896.16,0.066035
2897.78,0.06625
2899.4,0.066489
2901.03,0.066286
2902.65,0.066245
2904.28,0.066424
2905.91,0.066561
2907.54,0.066447
2909.17,0.066506
2910.8,0.06652
2912.44,0.066614
2914.07,0.066459
2915.71,0.066339
2917.35,0.066552
2918.99,0.066467
2920.64,0.066194
2922.29,0.066124
2923.93,0.066433
2925.58,0.066476
2927.24,0.066494
2928.89,0.066536
2930.55,0.066417
2932.2,0.066506
2933.86,0.066581
2935.52,0.066476
2937.19,0.06639
2938.85,0.066485
2940.52,0.066345
2942.19,0.066437
2943.86,0.066555
2945.53,0.066567
2947.21,0.066571
2948.88,0.066527
2950.56,0.06647
2952.24,0.066661
2953.92,0.066858
2955.61,0.066875
2957.29,0.066772
2958.98,0.066622
2960.67,0.066397
2962.36,0.066464
2964.06,0.066549
2965.75,0.066442
2967.45,0.066669
2969.15,0.066843
2970.85,0.066669
2972.55,0.066613
2974.26,0.066752
2975.97,0.066806
2977.68,0.066915
2979.39,0.067035
2981.1,0.067143
2982.82,0.067134
2984.53,0.066953
2986.25,0.066868
2987.97,0.067014
2989.7,0.067027
2991.42,0.066862
2993.15,0.066491
2994.88,0.066597
2996.61,0.066875
2998.34,0.067116
3000.08,0.067209
3001.82,0.06724
3003.55,0.067102
3005.3,0.066702
3007.04,0.066847
3008.78,0.067039
3010.53,0.06721
3012.28,0.067346
3014.03,0.067296
3015.79,0.067229
3017.54,0.067376
3019.3,0.067319
3021.06,0.067133
3022.82,0.067139
3024.58,0.067233
3026.35,0.067287
3028.12,0.067368
3029.89,0.067427
3031.66,0.067343
3033.43,0.067358
3035.21,0.067408
3036.99,0.067493
3038.77,0.067423
3040.55,0.067098
3042.33,0.067142
3044.12,0.067367
3045.91,0.067474
3047.7,0.067366
3049.49,0.067391
3051.29,0.067553
3053.08,0.067612
3054.88,0.067614
3056.68,0.067619
3058.49,0.067704
3060.29,0.067608
3062.1,0.067543
3063.91,0.067591
3065.72,0.067476
3067.54,0.067408
3069.35,0.067488
3071.17,0.06771
3072.99,0.067747
3074.81,0.06743
3076.64,0.067414
3078.47,0.067686
3080.29,0.067939
3082.13,0.068213
3083.96,0.068131
3085.79,0.067998
3087.63,0.067917
3089.47,0.067847
3091.31,0.067752
3093.16,0.067534
3095.01,0.067462
3096.85,0.067567
3098.71,0.067945
3100.56,0.068075
3102.41,0.067762
3104.27,0.067907
3106.13,0.067923
3107.99,0.067723
3109.86,0.067743
3111.73,0.067708
3113.59,0.067789
3115.47,0.068096
3117.34,0.068301
3119.21,0.06846
3121.09,0.068481
3122.97,0.068259
3124.86,0.068041
3126.74,0.068042
3128.63,0.06807
3130.52,0.068171
3132.41,0.068263
3134.3,0.068329
3136.2,0.068398
3138.1,0.068415
3140.0,0.068409
3141.9,0.068335
3143.81,0.068332
3145.71,0.068143
3147.62,0.068066
3149.54,0.068171
3151.45,0.068372
3153.37,0.068467
3155.29,0.068365
3157.21,0.068385
3159.13,0.068476
3161.06,0.068637
3162.99,0.068706
3164.92,0.068603
3166.85,0.068702
3168.79,0.068549
3170.72,0.068464
3172.67,0.068672
3174.61,0.068821
3176.55,0.068777
3178.5,0.06877
3180.45,0.068762
3182.4,0.068716
3184.36,0.068783
3186.32,0.068732
3188.27,0.06865
3190.24,0.068694
3192.2,0.068812
3194.17,0.068812
3196.14,0.068817
3198.11,0.068934
3200.08,0.068879
3202.06,0.068593
3204.04,0.068552
3206.02,0.068763
3208.0,0.068825
3209.99,0.068998
3211.98,0.069185
3213.97,0.068973
3215.96,0.068756
3217.96,0.068755
3219.96,0.068722
3221.96,0.068782
3223.96,0.06889
3225.97,0.06913
3227.98,0.069331
3229.99,0.069115
3232.0,0.068839
3234.02,0.068934
3236.04,0.068997
3238.06,0.069132
3240.08,0.069416
3242.11,0.069318
3244.14,0.069175
3246.17,0.069295
3248.2,0.069118
3250.24,0.069006
3252.28,0.069212
3254.32,0.069497
3256.37,0.069442
3258.41,0.069297
3260.46,0.069375
3262.51,0.069506
3264.57,0.069403
3266.63,0.069216
3268.69,0.069279
3270.75,0.069502
3272.81,0.069445
3274.88,0.069353
3276.95,0.069336
3279.02,0.069475
3281.1,0.069533
3283.18,0.069461
3285.26,0.069526
3287.34,0.069602
3289.43,0.069555
3291.51,0.069555
3293.61,0.069644
3295.7,0.069746
3297.8,0.069824
3299.9,0.069987
3302.0,0.070026
3304.1,0.06991
3306.21,0.069651
3308.32,0.06985
3310.43,0.070035
3312.55,0.069701
3314.66,0.069525
3316.79,0.069744
3318.91,0.069818
3321.03,0.070013
3323.16,0.069985
3325.29,0.06987
3327.43,0.07004
3329.57,0.070117
3331.71,0.07016
3333.85,0.070025
3335.99,0.069879
3338.14,0.069851
3340.29,0.069889
3342.45,0.070001
3344.6,0.07006
3346.76,0.070208
3348.92,0.070208
3351.09,0.069931
3353.26,0.069902
3355.43,0.070067
3357.6,0.07013
3359.78,0.070109
3361.96,0.070097
3364.14,0.070189
3366.32,0.07015
3368.51,0.069895
3370.7,0.069819
3372.89,0.069893
3375.09,0.069896
3377.29,0.070007
3379.49,0.070182
3381.69,0.070323
3383.9,0.070368
3386.11,0.070257
3388.32,0.070069
3390.54,0.07026
3392.76,0.070321
3394.98,0.070364
3397.21,0.070385
3399.43,0.070343
3401.66,0.070245
3403.9,0.07011
3406.13,0.070388
3408.37,0.070436
3410.61,0.070239
3412.86,0.070233
3415.11,0.070407
3417.36,0.07042
3419.61,0.070381
3421.87,0.070385
3424.13,0.070288
3426.39,0.070304
3428.66,0.070509
3430.93,0.070692
3433.2,0.07081
3435.48,0.07067
3437.76,0.070689
3440.04,0.070789
3442.32,0.070749
3444.61,0.070709
3446.9,0.070706
3449.19,0.070715
3451.49,0.070716
3453.79,0.070738
3456.09,0.070896
3458.4,0.071057
3460.7,0.070925
3463.02,0.070914
3465.33,0.071014
3467.65,0.071022
3469.97,0.071139
3472.29,0.071075
3474.62,0.071129
3476.95,0.07141
3479.29,0.071335
3481.62,0.07106
3483.96,0.071049
3486.3,0.071207
3488.65,0.071229
3491.0,0.071184
3493.35,0.071129
3495.71,0.071039
3498.07,0.070999
3500.43,0.070971
3502.79,0.070951
3505.16,0.071043
3507.53,0.071258
3509.91,0.071392
3512.29,0.071245
3514.67,0.071409
3517.05,0.071587
3519.44,0.071566
3521.83,0.071708
3524.23,0.07161
3526.62,0.071478
3529.02,0.071542
3531.43,0.071637
3533.83,0.071727
3536.24,0.07157
3538.66,0.071428
3541.08,0.071606
3543.5,0.071633
3545.92,0.071545
3548.35,0.071702
3550.78,0.071732
3553.21,0.071493
3555.65,0.071529
3558.09,0.071771
3560.53,0.071831
3562.98,0.071762
3565.43,0.07186
3567.88,0.071839
3570.34,0.071853
3572.8,0.071976
3575.27,0.071995
3577.73,0.071936
3580.2,0.071778
3582.68,0.071756
3585.16,0.071871
3587.64,0.072015
3590.12,0.072046
3592.61,0.072092
3595.1,0.072155
3597.6,0.072184
3600.09,0.07219
3602.6,0.072145
3605.1,0.07213
3607.61,0.071983
3610.12,0.072131
3612.64,0.072358
3615.16,0.072395
3617.68,0.072269
3620.21,0.072248
3622.74,0.072539
3625.27,0.072502
3627.81,0.072281
3630.35,0.072348
3632.89,0.072282
3635.44,0.072267
3637.99,0.072332
3640.54,0.07249
3643.1,0.072497
3645.66,0.072299
3648.23,0.072398
3650.8,0.072435
3653.37,0.0724
3655.95,0.07241
3658.53,0.072467
3661.11,0.072504
3663.7,0.072542
3666.29,0.072487
3668.89,0.072681
3671.48,0.072726
3674.09,0.072594
3676.69,0.072499
3679.3,0.072428
3681.91,0.072509
3684.53,0.072693
3687.15,0.072765
3689.78,0.072687
3692.4,0.072739
3695.04,0.072829
3697.67,0.072762
3700.31,0.07274
3702.95,0.072814
3705.6,0.072831
3708.25,0.072746
3710.91,0.07276
3713.56,0.072728
3716.23,0.072781
3718.89,0.072871
3721.56,0.073061
3724.23,0.073049
3726.91,0.072993
3729.59,0.07303
3732.28,0.072961
3734.97,0.07297
3737.66,0.073023
3740.36,0.072997
3743.06,0.07301
3745.76,0.073044
3748.47,0.072953
3751.18,0.073019
3753.9,0.073072
3756.62,0.073035
3759.34,0.073076
3762.07,0.073174
3764.8,0.073193
3767.54,0.073077
3770.28,0.073078
3773.02,0.073036
3775.77,0.072987
3778.52,0.073043
3781.28,0.073138
3784.04,0.073266
3786.8,0.073449
3789.57,0.073418
3792.34,0.073302
3795.12,0.073293
3797.9,0.073022
3800.69,0.072984
3803.47,0.073101
3806.27,0.073092
3809.06,0.073178
3811.86,0.073423
3814.67,0.073429
3817.48,0.07332
3820.29,0.073406
3823.11,0.073419
3825.93,0.073281
3828.76,0.073365
3831.59,0.073511
3834.42,0.073613
3837.26,0.073654
3840.1,0.073666
3842.95,0.073615
3845.8,0.073691
3848.65,0.073702
3851.51,0.073815
3854.38,0.073797
3857.24,0.073602
3860.12,0.073674
3862.99,0.073824
3865.87,0.073759
3868.76,0.073705
3871.65,0.073869
3874.54,0.073779
3877.44,0.073655
3880.34,0.07385
3883.25,0.073973
3886.16,0.073987
3889.07,0.073814
3891.99,0.073763
3894.92,0.07379
3897.85,0.073775
3900.78,0.073745
3903.72,0.073834
3906.66,0.074064
3909.6,0.074144
3912.55,0.074053
3915.51,0.074027
3918.47,0.074092
3921.43,0.074062
3924.4,0.07402
3927.38,0.073926
3930.35,0.073886
3933.33,0.073923
3936.32,0.074149
3939.31,0.074126
3942.31,0.073991
3945.31,0.074141
3948.31,0.074278
3951.32,0.074136
3954.34,0.074079
3957.35,0.073976
3960.38,0.073915
3963.41,0.074094
3966.44,0.074155
3969.48,0.074097
3972.52,0.074235
3975.56,0.074269
3978.61,0.074307
3981.67,0.074175
3984.73,0.074018
3987.8,0.074091
3990.87,0.074143
3993.94,0.074119
3997.02,0.07434
4000.1,0.074505
4003.19,0.074387
4006.29,0.074251
4009.39,0.074319
4012.49,0.074297
4015.6,0.074229
4018.71,0.074261
4021.83,0.074192
4024.95,0.074141
4028.08,0.074447
4031.21,0.074654
4034.35,0.074678
4037.49,0.074562
4040.64,0.074422
4043.79,0.074366
4046.94,0.074422
4050.11,0.07458
4053.27,0.074614
4056.44,0.074537
4059.62,0.074417
4062.8,0.074448
4065.99,0.074512
4069.18,0.074356
4072.38,0.07424
4075.58,0.074394
4078.78,0.074589
4082.0,0.074571
4085.21,0.074638
4088.43,0.074706
4091.66,0.074762
4094.89,0.074666
4098.13,0.07454
4101.37,0.074632
4104.62,0.074698
4107.87,0.074684
4111.13,0.074748
4114.39,0.074787
4117.66,0.074697
4120.93,0.074567
4124.21,0.074474
4127.5,0.074598
4130.79,0.074712
4134.08,0.074645
4137.38,0.074687
4140.68,0.074822
4143.99,0.07476
4147.31,0.074827
4150.63,0.074801
4153.95,0.074704
4157.29,0.074732
4160.62,0.074834
4163.96,0.074809
4167.31,0.074747
4170.66,0.074847
4174.02,0.074855
4177.39,0.074827
4180.75,0.074882
4184.13,0.074841
4187.51,0.074815
4190.89,0.074822
4194.28,0.074862
4197.68,0.074982
4201.08,0.075154
4204.49,0.075317
4207.9,0.075314
4211.32,0.07509
4214.74,0.074914
4218.17,0.075
4221.61,0.075111
4225.05,0.075025
4228.5,0.074995
4231.95,0.075023
4235.4,0.074958
4238.87,0.075016
4242.34,0.075116
4245.81,0.0751
4249.29,0.075077
4252.78,0.07501
4256.27,0.075024
4259.77,0.075265
4263.27,0.07532
4266.78,0.075148
4270.29,0.075078
4273.81,0.07526
4277.34,0.075185
4280.87,0.075116
4284.41,0.075171
4287.95,0.075164
4291.5,0.075209
4295.06,0.075314
4298.62,0.075342
4302.19,0.075375
4305.76,0.075426
4309.34,0.075335
4312.92,0.075368
4316.52,0.075299
4320.11,0.075198
4323.72,0.075497
4327.32,0.07562
4330.94,0.075401
4334.56,0.075272
4338.19,0.075337
4341.82,0.075426
4345.46,0.075404
4349.11,0.075368
4352.76,0.075346
4356.42,0.075412
4360.08,0.075527
4363.75,0.075528
4367.43,0.075576
4371.11,0.075654
4374.8,0.075641
4378.49,0.075528
4382.19,0.075532
4385.9,0.075596
4389.61,0.075559
4393.33,0.07554
4397.06,0.075732
4400.79,0.075675
4404.53,0.075561
4408.28,0.075574
4412.03,0.075769
4415.79,0.075883
4419.55,0.075807
4423.32,0.075643
4427.1,0.075712
4430.88,0.075785
4434.68,0.075787
4438.47,0.075744
4442.28,0.075652
4446.08,0.07557
4449.9,0.075636
4453.72,0.075704
4457.55,0.075838
4461.39,0.075967
4465.23,0.075865
4469.08,0.075811
4472.94,0.075914
4476.8,0.075923
4480.67,0.075936
4484.55,0.075823
4488.43,0.075748
4492.32,0.075922
4496.21,0.075881
4500.12,0.075862
4504.03,0.075937
4507.94,0.075975
4511.87,0.075872
4515.8,0.075928
4519.73,0.075933
4523.68,0.075882
4527.63,0.075921
4531.59,0.075974
4535.55,0.075894
4539.52,0.07581
4543.5,0.075798
4547.49,0.075773
4551.48,0.075823
4555.48,0.075894
4559.49,0.075912
4563.5,0.075828
4567.52,0.075764
4571.55,0.075802
4575.58,0.075932
4579.63,0.075955
4583.67,0.075905
4587.73,0.075837
4591.79,0.075795
4595.86,0.075811
4599.94,0.075739
4604.03,0.075735
4608.12,0.075781
4612.22,0.075675
4616.33,0.075566
4620.44,0.075765
4624.56,0.075905
4628.69,0.075833
4632.83,0.075785
4636.97,0.075689
4641.12,0.075759
4645.28,0.075722
4649.45,0.075629
4653.62,0.07559
4657.8,0.075552
4661.99,0.075642
4666.19,0.07574
4670.39,0.075715
4674.6,0.07564
4678.82,0.075546
4683.05,0.075637
4687.28,0.075756
4691.52,0.075833
4695.77,0.075822
4700.03,0.075772
4704.3,0.075708
4708.57,0.075601
4712.85,0.07554
4717.14,0.075596
4721.43,0.075719
4725.74,0.075872
4730.05,0.075771
4734.37,0.075572
4738.7,0.075631
4743.03,0.07569
4747.38,0.075614
4751.73,0.075493
4756.09,0.075389
4760.45,0.075539
4764.83,0.075583
4769.21,0.075339
4773.6,0.075319
4778.0,0.075395
4782.41,0.075425
4786.83,0.07539
4791.25,0.075421
4795.68,0.075453
4800.13,0.075429
4804.57,0.075386
4809.03,0.075362
4813.5,0.075364
4817.97,0.075273
4822.45,0.075232
4826.94,0.07528
4831.44,0.075401
4835.95,0.075352
4840.46,0.075244
4844.99,0.075238
4849.52,0.07525
4854.06,0.075354
4858.61,0.075307
4863.17,0.075079
4867.73,0.075036
4872.31,0.075093
4876.89,0.075078
4881.48,0.07505
4886.08,0.075125
4890.69,0.075041
4895.31,0.07488
4899.94,0.07482
4904.57,0.074737
4909.22,0.074717
4913.87,0.074714
4918.53,0.074709
4923.21,0.074692
4927.88,0.074607
4932.57,0.074686
4937.27,0.074781
4941.98,0.074762
4946.69,0.0747
4951.42,0.074672
4956.15,0.074665
4960.9,0.074728
4965.65,0.074612
4970.41,0.074498
4975.18,0.074679
4979.96,0.074714
4984.75,0.074568
4989.54,0.074517
4994.35,0.074656
4999.17,0.07468
5003.99,0.074466
5008.83,0.074342
5013.67,0.074347
5018.52,0.074392
5023.39,0.0744
5028.26,0.074411
5033.14,0.074467
5038.03,0.07437
5042.93,0.074314
5047.84,0.074364
5052.76,0.074338
5057.69,0.074229
5062.63,0.074137
5067.58,0.074037
5072.54,0.074011
5077.51,0.073953
5082.49,0.073824
5087.47,0.073827
5092.47,0.07395
5097.48,0.073921
5102.5,0.073797
5107.52,0.073814
5112.56,0.073733
5117.61,0.073629
5122.66,0.07371
5127.73,0.073864
5132.81,0.073855
5137.89,0.073766
5142.99,0.073788
5148.1,0.073745
5153.22,0.07368
5158.34,0.073715
5163.48,0.073711
5168.63,0.073665
5173.79,0.073714
5178.96,0.073631
5184.13,0.073612
5189.32,0.073667
5194.52,0.073689
5199.73,0.073776
5204.96,0.073736
5210.19,0.073654
5215.43,0.073698
5220.68,0.073763
5225.94,0.073767
5231.22,0.073801
5236.5,0.073834
5241.79,0.073797
5247.1,0.073786
5252.42,0.073803
5257.74,0.073796
5263.08,0.073862
5268.43,0.073902
5273.79,0.073887
5279.16,0.073834
5284.54,0.073875
5289.93,0.073794
5295.34,0.073726
5300.75,0.073733
5306.18,0.073684
5311.61,0.073607
5317.06,0.073602
5322.52,0.073717
5327.99,0.073736
5333.47,0.073763
5338.96,0.073794
5344.47,0.073633
5349.98,0.073601
5355.51,0.073678
5361.05,0.073559
5366.6,0.073455
5372.16,0.073405
5377.73,0.07334
5383.32,0.073413
5388.91,0.073496
5394.52,0.073341
5400.14,0.073178
5405.77,0.073177
5411.41,0.07322
5417.07,0.073079
5422.74,0.072931
5428.41,0.072799
5434.1,0.072884
5439.81,0.072924
5445.52,0.072775
5451.25,0.072666
5456.98,0.072746
5462.73,0.07291
5468.5,0.07291
5474.27,0.072775
5480.06,0.072717
5485.86,0.072766
5491.67,0.072783
5497.49,0.072707
5503.33,0.072687
5509.18,0.072511
5515.04,0.07243
5520.91,0.072518
5526.8,0.072535
5532.69,0.072513
5538.61,0.072582
5544.53,0.072506
5550.47,0.072513
5556.41,0.07246
5562.38,0.072312
5568.35,0.072207
5574.34,0.071979
5580.34,0.071883
5586.35,0.07177
5592.38,0.071627
5598.42,0.071521
5604.47,0.071362
5610.54,0.071268
5616.61,0.071192
5622.71,0.071109
5628.81,0.071132
5634.93,0.071093
5641.06,0.071
5647.21,0.070968
5653.36,0.070922
5659.54,0.070934
5665.72,0.070914
5671.92,0.070965
5678.13,0.070984
5684.36,0.07104
5690.6,0.071201
5696.85,0.071379
5703.12,0.071433
5709.4,0.071491
5715.69,0.071563
5722.0,0.071696
5728.33,0.071771
5734.66,0.071697
5741.01,0.071707
5747.38,0.071829
5753.76,0.071924
5760.15,0.072131
5766.56,0.072247
5772.98,0.072267
5779.41,0.072262
5785.86,0.072215
5792.33,0.072187
5798.81,0.072218
5805.3,0.07223
5811.81,0.072281
5818.33,0.072256
5824.87,0.072082
5831.42,0.072059
5837.99,0.072092
5844.57,0.071868
5851.17,0.071766
5857.78,0.071826
5864.41,0.071901
5871.05,0.071911
5877.7,0.071904
5884.38,0.071894
5891.06,0.071862
5897.76,0.071879
5904.48,0.071767
5911.21,0.071798
5917.96,0.071766
5924.73,0.071741
5931.5,0.071767
5938.3,0.071803
5945.11,0.071601
5951.93,0.071511
5958.78,0.071448
5965.63,0.071317
5972.51,0.071212
5979.39,0.071127
5986.3,0.070954
5993.22,0.070859
6000.16,0.070804
6007.11,0.070734
6014.08,0.070929
6021.06,0.071018
6028.06,0.070917
6035.08,0.070942
6042.12,0.07105
6049.17,0.07099
6056.23,0.070858
6063.32,0.071178
6070.42,0.071362
6077.53,0.071411
6084.67,0.071456
6091.82,0.071484
6098.98,0.071505
6106.17,0.071634
6113.37,0.071712
6120.58,0.071711
6127.82,0.071724
6135.07,0.071778
6142.34,0.072003
6149.63,0.072039
6156.93,0.072004
6164.25,0.072012
6171.59,0.072022
6178.95,0.072067
6186.32,0.072014
6193.71,0.071823
6201.12,0.07179
6208.54,0.071831
6215.99,0.071846
6223.45,0.071858
6230.93,0.07192
6238.43,0.071997
6245.95,0.072029
6253.48,0.071954
6261.03,0.071986
6268.6,0.071949
6276.19,0.071876
6283.8,0.071981
6291.43,0.071998
6299.07,0.071904
6306.73,0.071783
6314.42,0.071898
6322.12,0.071918
6329.84,0.071862
6337.57,0.07182
6345.33,0.071789
6353.11,0.071789
6360.9,0.071825
6368.72,0.071906
6376.55,0.071941
6384.4,0.071911
6392.27,0.071952
6400.17,0.071836
6408.08,0.071696
6416.01,0.071666
6423.96,0.071625
6431.93,0.071866
6439.92,0.072066
6447.93,0.07208
6455.96,0.071959
6464.01,0.071954
6472.08,0.071959
6480.17,0.071838
6488.28,0.071819
6496.41,0.071885
6504.56,0.071851
6512.73,0.07188
6520.92,0.071948
6529.14,0.071898
6537.37,0.071928
6545.63,0.071934
6553.9,0.071907
6562.2,0.07178
6570.51,0.071723
6578.85,0.071788
6587.21,0.071727
6595.59,0.07167
6603.99,0.071543
6612.42,0.071556
6620.86,0.071546
6629.33,0.07151
6637.82,0.071491
6646.33,0.071433
6654.86,0.071482
6663.41,0.07151
6671.99,0.07136
6680.59,0.071237
6689.21,0.071265
6697.85,0.071318
6706.51,0.071454
6715.2,0.071472
6723.91,0.071458
6732.64,0.071353
6741.4,0.071249
6750.18,0.071152
6758.98,0.071156
6767.8,0.071165
6776.65,0.071094
6785.52,0.070952
6794.41,0.070819
6803.33,0.070732
6812.27,0.070784
6821.23,0.070731
6830.22,0.070635
6839.23,0.070571
6848.26,0.07056
6857.32,0.070562
6866.4,0.070513
6875.51,0.070233
6884.64,0.07009
6893.8,0.069952
6902.98,0.06993
6912.18,0.069876
6921.41,0.069814
6930.66,0.069782
6939.94,0.069781
6949.24,0.069737
6958.57,0.069678
6967.92,0.069452
6977.3,0.069209
6986.7,0.069162
6996.13,0.069238
7005.59,0.069169
7015.07,0.068939
7024.57,0.068711
7034.1,0.068543
7043.66,0.068424
7053.25,0.068449
7062.85,0.068505
7072.49,0.06846
7082.15,0.06842
7091.84,0.068331
7101.55,0.068255
7111.3,0.068139
7121.06,0.067849
7130.86,0.067647
7140.68,0.067693
7150.53,0.06766
7160.41,0.067555
7170.31,0.067602
7180.24,0.067577
7190.2,0.067483
7200.19,0.067476
7210.2,0.067391
7220.24,0.067226
7230.31,0.067161
7240.41,0.067014
7250.54,0.066819
7260.69,0.066651
7270.88,0.066525
7281.09,0.066509
7291.33,0.06651
7301.6,0.066363
7311.9,0.066281
7322.22,0.066334
7332.58,0.066245
7342.97,0.066187
7353.38,0.066095
7363.83,0.065954
7374.3,0.065871
7384.81,0.065973
7395.34,0.065907
7405.91,0.065668
7416.5,0.065517
7427.13,0.065362
7437.78,0.065226
7448.47,0.065086
7459.19,0.064898
7469.94,0.064793
7480.71,0.064865
7491.52,0.064781
7502.37,0.064542
7513.24,0.064169
7524.14,0.063943
7535.08,0.063861
7546.05,0.063788
7557.05,0.063586
7568.08,0.063313
7579.15,0.063113
7590.24,0.0629
7601.37,0.062775
7612.53,0.06259
7623.73,0.062429
7634.96,0.062354
7646.22,0.062142
7657.51,0.061973
7668.84,0.061866
7680.2,0.061694
7691.59,0.061387
7703.02,0.061239
7714.49,0.061344
7725.98,0.061254
7737.52,0.061088
7749.08,0.060972
7760.68,0.060858
7772.32,0.060593
7783.99,0.060443
7795.69,0.060369
7807.43,0.060207
7819.21,0.059914
7831.02,0.059772
7842.87,0.059784
7854.75,0.05978
7866.67,0.059579
7878.62,0.059327
7890.62,0.05923
7902.64,0.059064
7914.71,0.058964
7926.81,0.05879
7938.95,0.058537
7951.13,0.058268
7963.34,0.058077
7975.59,0.057689
7987.88,0.057229
8000.21,0.056934
8012.57,0.056547
8024.98,0.05609
8037.42,0.055751
8049.9,0.055363
8062.42,0.054892
8074.98,0.054453
8087.57,0.054051
8100.21,0.053582
8112.89,0.053134
8125.6,0.052525
8138.36,0.051893
8151.16,0.051364
8163.99,0.050913
8176.87,0.050312
8189.79,0.049742
8202.75,0.049315
8215.75,0.048869
8228.79,0.048234
8241.87,0.047703
8254.99,0.046979
8268.16,0.046423
8281.37,0.045989
8294.62,0.045429
8307.91,0.044753
8321.24,0.044348
8334.62,0.043828
8348.04,0.043245
8361.51,0.0427
8375.02,0.04207
8388.57,0.041479
8402.16,0.040876
8415.8,0.040455
8429.49,0.040163
8443.22,0.039713
8456.99,0.039146
8470.81,0.038641
8484.67,0.038389
8498.58,0.03802
8512.54,0.037701
8526.54,0.0375
8540.58,0.037089
8554.68,0.036695
8568.82,0.036534
8583.0,0.036347
8597.24,0.036236
8611.52,0.036061
8625.85,0.035862
8640.23,0.035743
8654.65,0.035427
8669.12,0.03522
8683.64,0.03516
8698.21,0.034657
8712.83,0.033935
8727.5,0.033262
8742.22,0.033184
8756.99,0.033642
8771.8,0.034063
8786.67,0.034233
8801.59,0.034277
8816.56,0.034163
8831.58,0.034004
8846.65,0.033768
8861.77,0.033552
8876.94,0.033202
8892.17,0.03285
8907.45,0.03255
8922.78,0.032284
8938.16,0.0321
8953.6,0.031845
8969.09,0.031705
8984.64,0.031775
9000.23,0.031322
9015.89,0.030848
9031.59,0.030504
9047.36,0.029988
9063.17,0.029522
9079.05,0.029073
9094.97,0.028464
9110.96,0.02804
9127.0,0.027622
9143.1,0.027433
9159.25,0.02719
9175.46,0.027189
9191.73,0.02714
9208.06,0.02716
9224.44,0.026908
9240.88,0.026923
9257.38,0.027287
9273.94,0.02753
9290.56,0.027712
9307.24,0.027789
9323.98,0.027912
9340.78,0.028118
9357.64,0.028054
9374.57,0.027716
9391.55,0.02756
9408.59,0.027549
9425.7,0.027258
9442.87,0.027057
9460.1,0.0269
9477.4,0.026715
9494.75,0.026367
9512.17,0.026371
9529.66,0.026077
9547.21,0.025767
9564.83,0.025644
9582.5,0.025457
9600.25,0.025228
9618.06,0.025016
9635.94,0.024712
9653.88,0.024463
9671.89,0.024384
9689.97,0.024654
9708.12,0.024758
9726.33,0.024886
9744.62,0.025304
9762.97,0.02585
9781.39,0.026341
9799.88,0.026885
9818.44,0.027469
9837.07,0.028082
9855.77,0.028766
9874.54,0.029176
9893.39,0.029281
9912.3,0.029542
9931.29,0.029874
9950.36,0.030128
9969.49,0.030078
9988.7,0.030039
10007.98,0.030019
10027.34,0.030087
10046.77,0.0302
10066.28,0.03051
10085.87,0.030835
10105.53,0.03117
10125.26,0.031426
10145.08,0.031591
10164.97,0.031842
10184.94,0.032115
10204.99,0.032192
10225.12,0.032176
10245.33,0.032395
10265.61,0.03275
10285.98,0.033276
10306.43,0.033925
10326.96,0.034857
10347.57,0.035676
10368.27,0.036386
10389.05,0.037107
10409.91,0.037466
10430.86,0.037503
10451.88,0.037579
10473.0,0.037503
10494.2,0.036887
10515.49,0.035984
10536.86,0.035514
10558.32,0.035302
10579.87,0.034979
10601.5,0.035143
10623.23,0.036025
10645.04,0.037195
10666.94,0.038554
10688.94,0.039816
10711.02,0.040573
10733.2,0.040951
10755.47,0.041207
10777.83,0.041066
10800.28,0.040632
10822.83,0.040284
10845.47,0.040048
10868.21,0.040073
10891.04,0.03995
10913.97,0.039798
10936.99,0.039678
10960.12,0.039694
10983.34,0.039797
11006.66,0.04012
11030.07,0.040512
11053.59,0.040575
11077.21,0.041016
11100.93,0.04152
11124.75,0.042159
11148.68,0.042748
11172.71,0.043036
11196.84,0.043369
11221.07,0.043463
11245.41,0.043453
11269.86,0.043608
11294.41,0.043892
11319.07,0.044597
11343.84,0.045067
11368.72,0.045485
11393.7,0.04622
11418.8,0.046531
11444.01,0.046801
11469.33,0.046964
11494.76,0.047117
11520.3,0.047113
11545.96,0.047074
11571.73,0.046596
11597.62,0.045871
11623.62,0.045022
11649.74,0.044082
11675.98,0.043085
11702.34,0.042157
11728.81,0.041337
11755.41,0.040728
11782.13,0.040175
11808.96,0.039863
11835.92,0.039313
11863.01,0.038506
11890.22,0.037939
11917.55,0.0371
11945.01,0.036186
11972.6,0.036162
12000.31,0.036865
12028.16,0.037934
12056.13,0.038753
12084.23,0.03994
12112.46,0.041047
12140.83,0.042416
12169.33,0.04367
12197.96,0.044486
12226.73,0.045283
12255.64,0.046261
12284.68,0.047138
12313.86,0.04816
12343.18,0.048678
12372.64,0.049008
12402.24,0.049815
12431.98,0.050627
12461.86,0.051104
12491.89,0.051299
12522.07,0.051442
12552.38,0.052068
12582.85,0.052647
12613.47,0.052454
12644.23,0.05223
12675.15,0.052544
12706.21,0.052833
12737.43,0.052708
12768.81,0.052836
12800.33,0.052717
12832.02,0.052178
12863.86,0.052178
12895.86,0.052334
12928.02,0.05219
12960.34,0.051762
12992.82,0.051449
13025.46,0.051047
13058.27,0.050682
13091.25,0.050129
13124.39,0.049446
13157.7,0.049305
13191.18,0.049224
13224.83,0.048648
13258.66,0.047711
13292.65,0.046732
13326.83,0.045822
13361.17,0.044783
13395.7,0.044325
13430.4,0.043684
13465.29,0.042517
13500.35,0.041322
13535.6,0.040565
13571.03,0.040308
13606.65,0.039933
13642.46,0.03914
13678.46,0.03869
13714.64,0.038112
13751.02,0.037445
13787.59,0.037121
13824.36,0.036858
13861.32,0.036498
13898.49,0.036874
13935.85,0.03699
13973.41,0.036769
14011.17,0.036625
14049.15,0.036498
14087.32,0.036265
14125.71,0.035767
14164.3,0.035075
14203.11,0.03476
14242.13,0.034521
14281.36,0.033754
14320.81,0.033117
14360.49,0.032572
14400.38,0.032003
14440.49,0.031394
14480.82,0.030742
14521.39,0.030187
14562.18,0.029583
14603.2,0.029182
14644.45,0.029054
14685.93,0.028672
14727.66,0.028193
14769.62,0.027979
14811.81,0.027509
14854.25,0.027212
14896.94,0.02718
14939.87,0.026879
14983.05,0.027044
15026.48,0.027512
15070.16,0.026729
15114.1,0.026234
15158.29,0.026057
15202.74,0.025807
15247.46,0.025508
15292.43,0.025325
15337.68,0.025142
15383.19,0.024828
15428.97,0.024356
15475.03,0.023916
15521.36,0.023579
15567.97,0.02383
15614.87,0.024079
15662.04,0.023983
15709.5,0.023544
15757.25,0.022991
15805.29,0.022795
15853.62,0.022777
15902.26,0.02271
15951.19,0.022399
16000.42,0.022233
16049.95,0.022116
16099.8,0.022107
16149.95,0.022193
16200.42,0.021852
16251.21,0.021696
16302.31,0.021928
16353.74,0.022185
16405.49,0.022177
16457.57,0.022023
16509.98,0.021988
16562.73,0.022061
16615.82,0.0224
16669.24,0.022893
16723.02,0.023127
16777.14,0.023303
16831.61,0.023703
16886.43,0.024307
16941.62,0.024487
16997.16,0.024593
17053.08,0.02521
17109.36,0.025646
17166.01,0.025688
17223.04,0.025982
17280.45,0.026553
17338.24,0.0273
17396.43,0.02768
17455.0,0.027875
17513.97,0.028082
17573.34,0.028146
17633.11,0.027632
17693.29,0.026841
17753.89,0.026855
17814.9,0.027266
17876.33,0.027185
17938.18,0.027411
18000.47,0.028059
18063.19,0.028939
18126.35,0.02987
18189.95,0.030785
18254.0,0.03168
18318.5,0.032749
18383.46,0.03369
18448.88,0.034676
18514.77,0.035533
18581.13,0.036272
18647.97,0.037592
18715.29,0.038856
18783.1,0.040321
18851.4,0.04163
18920.2,0.042176
18989.51,0.04253
19059.32,0.042999
19129.65,0.043883
19200.5,0.045548
19271.88,0.046061
19343.79,0.045335
19416.24,0.044988
19489.23,0.045073
19562.77,0.045127
19636.88,0.043996
19711.54,0.04368
19786.78,0.043808
19862.59,0.042962
19938.98,0.042101
20015.96,0.04164
20093.55,0.041755
20171.73,0.041638
20250.53,0.041692
20329.94,0.042026
20409.98,0.040922
20490.65,0.040304
20571.96,0.041269
20653.92,0.042539
20736.54,0.041877
20819.82,0.041982
20903.77,0.042293
20988.4,0.041602
21073.72,0.041426
21159.73,0.040979
21246.46,0.039297
21333.89,0.038862
21422.04,0.037644
21510.93,0.036143
21600.56,0.035824
21690.94,0.035491
21782.08,0.034423
21873.99,0.035117
21966.67,0.036238
22060.15,0.036736
22154.42,0.036737
22249.51,0.035719
22345.41,0.034901
22442.14,0.035322
22539.72,0.035985
22638.14,0.036974
22737.43,0.037062
22837.6,0.035556
22938.65,0.035187
23040.6,0.034232
23143.46,0.03481
23247.24,0.03713
23351.96,0.03779
23457.63,0.038349
23564.25,0.038796
23671.85,0.03766
23780.44,0.037902
23890.02,0.037503
24000.63,0.038701
24112.26,0.042882
24224.93,0.044913
24338.66,0.044045
24453.47,0.040254
24569.36,0.037585
24686.36,0.037946
24804.47,0.042187
24923.73,0.044458
25044.13,0.042793
25165.71,0.038302
25288.46,0.037248
25412.43,0.039435
25537.61,0.044245
25664.04,0.044672
25791.72,0.048606
25920.68,0.051417
