Database of Origin,University of Winnipeg Spectrophotometer Facility
Sample Description,Carbonates and Oxolates - RELAB+Nicolet spectra Newly merged spectra (merged by RELAB)
Other Information,dry seived
Date Added,2018-08-06 20:49:02.985797

Data ID,RLA_CARB_1_40       
Sample ID,CRB211
Mineral Name,Pirssonite
Locality,Searles Lake/ San Bernardino County/ California/ USA
Grain Size,45-90 um
Viewing Geometry,30/0/30
Resolution,5/ 0.6-129 nm
Formula,CaCO3*Na2CO3*2(H2O)

Wavelength
305.0,0.357417
310.0,0.361584
315.0,0.365518
320.0,0.373804
325.0,0.37657
330.0,0.384466
335.0,0.38887
340.0,0.396734
345.0,0.399909
350.0,0.405855
355.0,0.41098
360.0,0.417969
365.0,0.421283
370.0,0.427718
375.0,0.432994
380.0,0.436457
385.0,0.440511
390.0,0.444317
395.0,0.445596
400.0,0.445684
405.0,0.4501
410.0,0.454959
415.0,0.46045
420.0,0.465972
425.0,0.473262
430.0,0.479672
435.0,0.485638
440.0,0.491451
445.0,0.496632
450.0,0.500915
455.0,0.506881
460.0,0.510797
465.0,0.515761
470.0,0.520167
475.0,0.526316
480.0,0.529667
485.0,0.533697
490.0,0.537409
495.0,0.540938
500.0,0.54469
505.0,0.548891
510.0,0.553115
515.0,0.555907
520.0,0.560458
525.0,0.563934
530.0,0.56891
535.0,0.573109
540.0,0.575634
545.0,0.579328
550.0,0.581584
555.0,0.58351
560.0,0.587094
565.0,0.587608
570.0,0.589542
575.0,0.590143
580.0,0.591087
585.0,0.5919
590.0,0.592135
595.0,0.592341
600.0,0.591179
605.0,0.590621
610.0,0.589049
615.0,0.588429
620.0,0.586676
625.0,0.586168
630.0,0.586811
635.0,0.584815
640.0,0.583772
645.0,0.582442
650.0,0.581881
655.0,0.584774
660.0,0.587395
665.0,0.590701
670.0,0.592895
675.0,0.597113
680.0,0.599813
685.0,0.602339
690.0,0.603201
695.0,0.607917
700.0,0.609144
705.0,0.611715
710.0,0.611517
715.0,0.614579
720.0,0.615882
725.0,0.615872
730.0,0.618129
735.0,0.619802
740.0,0.621839
745.0,0.621462
750.0,0.625115
755.0,0.627019
760.0,0.629633
765.0,0.629956
770.0,0.631103
775.0,0.631539
780.0,0.633683
785.0,0.63663
790.0,0.637611
795.0,0.640712
800.0,0.642117
805.0,0.643172
810.0,0.645099
815.0,0.647145
820.0,0.648898
825.0,0.649334
830.0,0.650912
835.0,0.652382
840.0,0.653309
845.0,0.654475
850.0,0.654688
855.0,0.655634
860.0,0.656323
865.0,0.657329
870.0,0.657498
875.0,0.659178
880.0,0.659141
885.0,0.659425
890.0,0.659814
895.0,0.661612
900.0,0.659751
905.0,0.661079
910.0,0.661264
915.0,0.661692
920.0,0.662786
925.0,0.663171
930.0,0.662599
935.0,0.664033
940.0,0.665038
945.0,0.6658
950.0,0.66616
955.0,0.667306
960.0,0.668255
965.0,0.667706
970.0,0.670227
975.0,0.668521
980.0,0.671803
985.0,0.670135
990.0,0.67175
995.0,0.667835
1000.0,0.672126
1005.0,0.671266
1010.0,0.673143
1015.0,0.670453
1020.0,0.671616
1025.0,0.671558
1030.0,0.671322
1035.0,0.672839
1040.0,0.67177
1045.0,0.670981
1050.0,0.671749
1055.0,0.670685
1060.0,0.670392
1065.0,0.672021
1070.0,0.67275
1075.0,0.673055
1080.0,0.672394
1085.0,0.673469
1090.0,0.673499
1095.0,0.674319
1100.0,0.674878
1105.0,0.67443
1110.0,0.674817
1115.0,0.676159
1120.0,0.676561
1125.0,0.678097
1130.0,0.678662
1135.0,0.67905
1140.0,0.680419
1145.0,0.681819
1150.0,0.681801
1155.0,0.681717
1160.0,0.682555
1165.0,0.682777
1170.0,0.682354
1175.0,0.682737
1180.0,0.681621
1185.0,0.680865
1190.0,0.68053
1195.0,0.680494
1200.0,0.679691
1205.0,0.680196
1210.0,0.678996
1215.0,0.680229
1220.0,0.678196
1225.0,0.677986
1230.0,0.676129
1235.0,0.67564
1240.0,0.675092
1245.0,0.673283
1250.0,0.674718
1255.0,0.675271
1260.0,0.675724
1265.0,0.675461
1270.0,0.674849
1275.0,0.675031
1280.0,0.674994
1285.0,0.674498
1290.0,0.675893
1295.0,0.676808
1300.0,0.679257
1305.0,0.681957
1310.0,0.680129
1315.0,0.68175
1320.0,0.684262
1325.0,0.684
1330.0,0.686152
1335.0,0.68638
1340.0,0.686844
1345.0,0.686237
1350.0,0.685936
1355.0,0.685691
1360.0,0.68549
1365.0,0.685044
1370.0,0.684944
1375.0,0.684332
1380.0,0.683912
1385.0,0.682756
1420.0,0.680901
1425.0,0.680545
1430.0,0.680011
1435.0,0.679337
1440.0,0.677989
1445.0,0.676105
1450.0,0.67353
1455.0,0.669744
1460.0,0.665964
1465.0,0.661299
1470.0,0.656268
1475.0,0.65035
1480.0,0.643803
1485.0,0.637213
1490.0,0.631066
1495.0,0.623287
1500.0,0.615476
1505.0,0.606884
1510.0,0.599357
1515.0,0.590426
1520.0,0.581453
1525.0,0.574013
1530.0,0.565513
1535.0,0.558711
1540.0,0.550762
1545.0,0.544774
1550.0,0.537782
1555.0,0.532479
1560.0,0.527934
1565.0,0.522922
1570.0,0.518907
1575.0,0.516074
1580.0,0.514793
1585.0,0.514345
1590.0,0.514397
1595.0,0.513823
1600.0,0.513277
1605.0,0.512517
1610.0,0.511516
1615.0,0.510013
1620.0,0.507809
1625.0,0.50516
1630.0,0.501813
1635.0,0.49822
1640.0,0.494854
1645.0,0.490541
1650.0,0.485628
1655.0,0.480944
1660.0,0.475876
1665.0,0.471929
1670.0,0.467033
1675.0,0.462056
1680.0,0.458407
1685.0,0.453902
1690.0,0.450343
1695.0,0.446275
1700.0,0.442951
1705.31,0.439086
1709.81,0.436283
1715.46,0.43242
1720.02,0.42973
1724.6,0.427119
1730.35,0.424096
1734.98,0.421839
1739.64,0.420183
1745.5,0.418582
1750.21,0.4181
1754.95,0.418194
1759.72,0.418921
1764.51,0.420146
1770.54,0.422375
1775.39,0.424408
1780.27,0.427067
1785.17,0.429914
1790.1,0.432711
1795.06,0.435749
1800.05,0.438533
1805.06,0.441466
1810.1,0.443993
1815.17,0.447077
1820.27,0.450094
1825.4,0.453626
1830.56,0.457293
1834.44,0.459912
1839.65,0.463603
1844.89,0.467418
1850.16,0.471098
1855.45,0.474297
1859.45,0.476573
1864.8,0.478685
1870.18,0.479726
1875.59,0.479617
1879.67,0.478457
1885.14,0.475683
1890.64,0.47065
1894.79,0.465701
1900.34,0.457235
1904.53,0.449721
1910.15,0.43823
1914.38,0.428392
1920.05,0.414271
1924.33,0.403046
1930.06,0.387396
1934.38,0.375356
1940.17,0.3596
1944.54,0.347899
1950.39,0.332721
1954.8,0.322507
1960.72,0.309786
1965.18,0.300585
1969.66,0.291706
1975.66,0.279886
1980.19,0.270899
1984.74,0.262336
1989.31,0.254136
1995.43,0.246731
2000.05,0.243871
2004.69,0.244032
2009.35,0.246708
2015.6,0.252689
2020.32,0.257268
2025.05,0.261055
2029.81,0.263504
2034.59,0.265026
2039.39,0.26613
2044.22,0.266986
2050.69,0.26749
2055.57,0.267141
2060.47,0.265939
2065.39,0.26443
2070.34,0.263056
2075.31,0.261306
2080.31,0.259158
2085.33,0.256336
2090.38,0.253332
2095.45,0.250736
2100.54,0.249463
2105.66,0.249557
2110.8,0.25209
2114.25,0.254605
2119.43,0.259981
2124.65,0.266534
2129.88,0.273817
2135.15,0.281149
2140.44,0.288106
2145.75,0.294443
2149.31,0.298339
2154.67,0.303472
2160.06,0.308392
2165.47,0.31421
2170.91,0.321366
2174.55,0.327096
2180.04,0.336982
2185.55,0.34768
2189.25,0.355229
2194.81,0.366969
2200.4,0.378476
2204.14,0.385675
2209.78,0.395624
2215.44,0.404006
2219.24,0.40883
2224.95,0.414321
2230.7,0.417968
2234.54,0.4197
2240.33,0.420864
2244.21,0.421012
2250.06,0.420755
2255.93,0.420566
2259.87,0.420589
2265.79,0.420711
2269.76,0.420979
2275.74,0.421628
2279.74,0.422017
2285.77,0.421829
2289.81,0.421919
2295.9,0.42234
2299.97,0.42261
2304.06,0.422266
2310.22,0.421366
2314.35,0.420753
2320.56,0.419917
2324.72,0.41908
2331.0,0.417277
2335.2,0.415745
2339.41,0.414164
2345.76,0.411001
2350.02,0.409364
2354.28,0.407247
2360.72,0.404027
2365.03,0.401551
2369.35,0.398915
2375.86,0.394012
2380.23,0.390618
2384.61,0.386634
2389.0,0.382617
2395.63,0.376395
2400.06,0.371946
2404.52,0.367558
2408.98,0.362653
2415.72,0.353866
2420.23,0.346913
2424.76,0.339027
2429.3,0.329985
2433.87,0.31967
2440.74,0.301835
2445.35,0.288275
2449.97,0.273652
2454.61,0.258097
2459.27,0.242366
2463.94,0.227284
2470.99,0.207877
2475.71,0.198278
2480.45,0.192776
2485.2,0.191279
2489.98,0.193456
2494.77,0.198747
2499.58,0.205534
2504.41,0.212552
2509.26,0.219611
2514.13,0.226151
2519.02,0.232298
2523.92,0.238323
2528.85,0.24487
2533.79,0.250202
2541.24,0.257071
2543.74,0.258804
2548.74,0.262455
2553.76,0.265656
2556.28,0.267541
2558.8,0.269739
2561.33,0.271956
2563.86,0.274244
2566.4,0.277031
2568.95,0.279482
2571.5,0.281488
2574.05,0.283416
2576.61,0.284942
2579.17,0.285905
2581.74,0.28673
2584.31,0.287235
2586.89,0.287513
2589.48,0.287691
2592.07,0.287538
2594.66,0.287201
2597.26,0.287009
2599.87,0.286942
2602.48,0.286741
2605.09,0.286546
2607.71,0.286699
2610.34,0.287295
2612.97,0.288118
2615.61,0.288796
2618.25,0.289535
2620.9,0.290329
2623.55,0.291357
2626.21,0.292148
2628.87,0.292638
2631.54,0.292965
2634.22,0.293356
2636.89,0.293371
2639.58,0.293168
2642.27,0.293122
2644.97,0.29272
2647.67,0.291847
2650.38,0.29072
2653.09,0.289569
2655.81,0.288401
2658.53,0.286858
2661.26,0.285024
2664.0,0.283232
2666.74,0.281235
2669.48,0.278921
2672.23,0.276671
2674.99,0.274062
2677.76,0.271426
2680.52,0.268412
2683.3,0.265215
2686.08,0.261781
2688.87,0.258005
2691.66,0.253815
2694.46,0.249327
2697.26,0.244183
2700.07,0.238989
2702.89,0.233636
2705.71,0.227924
2708.53,0.222333
2711.37,0.216676
2714.21,0.21064
2717.05,0.205197
2719.9,0.199651
2722.76,0.193959
2725.62,0.188091
2728.49,0.182132
2731.37,0.175592
2734.25,0.168765
2737.14,0.161796
2740.03,0.155002
2742.93,0.147714
2745.83,0.140766
2748.75,0.134217
2751.66,0.127512
2754.59,0.121258
2757.52,0.114892
2760.46,0.108215
2763.4,0.102364
2766.35,0.096611
2769.3,0.091379
2772.26,0.08629
2775.23,0.081156
2778.21,0.076341
2781.19,0.072154
2784.18,0.068384
2787.17,0.064668
2790.17,0.061188
2793.18,0.058046
2796.19,0.055236
2799.21,0.052686
2802.24,0.050369
2805.27,0.048273
2808.31,0.046257
2811.35,0.044436
2814.41,0.042857
2817.46,0.041461
2820.53,0.040179
2823.6,0.038953
2826.68,0.038059
2829.77,0.037102
2832.86,0.036384
2835.96,0.035756
2839.07,0.034983
2842.18,0.034361
2845.3,0.033924
2848.43,0.033455
2851.56,0.032795
2854.7,0.032471
2857.85,0.032341
2861.0,0.032058
2864.16,0.031736
2867.33,0.031575
2870.51,0.031275
2873.69,0.031001
2876.88,0.03076
2880.07,0.030595
2883.28,0.030574
2886.49,0.0304
2889.71,0.029986
2892.93,0.02973
2896.17,0.029657
2899.4,0.02968
2902.65,0.029538
2905.91,0.029341
2909.17,0.029067
2912.44,0.029132
2915.71,0.029234
2918.99,0.029245
2922.29,0.029117
2925.58,0.02887
2928.89,0.028767
2932.2,0.028864
2935.52,0.028945
2938.85,0.029197
2942.19,0.029331
2945.53,0.029356
2948.88,0.029295
2952.24,0.029176
2955.61,0.029335
2958.98,0.029858
2962.36,0.029923
2965.75,0.029496
2969.15,0.029429
2972.55,0.029594
2975.97,0.029751
2979.39,0.029806
2986.25,0.03013
2989.7,0.03022
2993.15,0.030302
2996.61,0.030363
3000.08,0.030488
3003.55,0.030721
3007.04,0.030714
3010.53,0.03079
3014.03,0.030909
3017.54,0.030984
3021.06,0.031349
3024.58,0.031669
3028.12,0.031625
3031.66,0.031621
3035.21,0.031872
3038.77,0.031954
3042.33,0.032109
3045.91,0.032282
3049.49,0.032213
3053.08,0.03218
3056.68,0.032423
3060.29,0.032747
3063.91,0.0328
3067.54,0.032873
3071.17,0.032829
3074.81,0.032969
3078.47,0.033176
3082.13,0.033434
3085.79,0.03379
3089.47,0.033679
3093.16,0.033476
3096.85,0.033905
3100.56,0.034269
3104.27,0.034545
3107.99,0.034757
3111.73,0.034967
3115.47,0.035432
3119.21,0.035744
3122.97,0.035507
3126.74,0.036144
3130.52,0.036153
3134.3,0.036599
3138.1,0.036841
3141.9,0.036759
3145.71,0.037181
3149.54,0.037429
3153.37,0.037449
3157.21,0.037641
3161.06,0.037849
3164.92,0.037725
3168.79,0.03811
3172.67,0.03822
3176.55,0.038833
3180.45,0.038705
3184.36,0.039277
3188.27,0.039226
3192.2,0.039313
3196.14,0.039218
3200.08,0.039622
3204.04,0.03993
3208.0,0.040427
3211.98,0.040326
3215.96,0.041009
3219.96,0.041692
3223.96,0.042015
3227.98,0.042039
3232.0,0.042461
3236.04,0.042924
3240.08,0.04345
3244.14,0.04383
3248.2,0.044292
3252.28,0.044315
3256.37,0.044828
3260.46,0.045263
3264.57,0.045566
3268.69,0.045776
3272.81,0.045997
3276.95,0.046157
3281.1,0.046592
3285.26,0.046493
3289.43,0.046595
3293.61,0.046955
3297.8,0.04634
3302.0,0.046322
3306.21,0.046455
3310.43,0.04648
3314.66,0.046119
3318.91,0.046323
3323.16,0.046243
3327.43,0.046132
3331.71,0.045787
3335.99,0.046086
3340.29,0.045838
3344.6,0.045597
3348.92,0.045785
3353.26,0.045475
3357.6,0.045668
3361.96,0.045518
3366.32,0.045296
3370.7,0.045367
3375.09,0.045639
3379.49,0.04558
3383.9,0.045865
3388.32,0.045668
3392.76,0.045663
3397.21,0.045458
3401.66,0.045573
3406.13,0.045756
3410.61,0.045588
3415.11,0.045599
3419.61,0.045476
3424.13,0.045876
3428.66,0.045745
3433.2,0.04579
3437.76,0.045818
3442.32,0.046126
3446.9,0.045849
3451.49,0.046092
3456.09,0.046177
3460.7,0.046497
3465.33,0.046391
3469.97,0.0465
3474.62,0.046385
3479.29,0.046375
3483.96,0.046639
3488.65,0.04667
3493.35,0.047074
3498.07,0.047368
3502.79,0.047032
3507.53,0.046973
3512.29,0.047265
3517.05,0.047693
3521.83,0.04762
3526.62,0.047871
3531.43,0.048257
3536.24,0.048359
3541.08,0.048406
3543.5,0.048547
3545.92,0.048651
3548.35,0.048541
3550.78,0.048461
3553.21,0.048474
3555.65,0.048755
3558.09,0.048786
3560.53,0.048759
3562.98,0.049073
3565.43,0.04919
3567.88,0.049148
3570.34,0.04946
3572.8,0.049591
3575.27,0.049704
3577.73,0.049779
3580.2,0.049646
3582.68,0.049852
3585.16,0.05002
3587.64,0.049907
3590.12,0.050013
3592.61,0.050274
3595.1,0.050394
3597.6,0.050491
3600.09,0.050661
3602.6,0.050785
3605.1,0.051137
3607.61,0.051318
3610.12,0.051393
3612.64,0.051455
3615.16,0.051462
3617.68,0.051512
3620.21,0.051767
3622.74,0.052059
3625.27,0.05228
3627.81,0.052309
3630.35,0.052138
3632.89,0.052191
3635.44,0.052541
3637.99,0.052788
3640.54,0.053023
3643.1,0.053171
3645.66,0.053133
3648.23,0.053058
3650.8,0.053299
3653.37,0.05356
3655.95,0.053472
3658.53,0.053616
3661.11,0.05398
3663.7,0.054204
3666.29,0.054374
3668.89,0.054467
3671.48,0.054595
3674.09,0.054668
3676.69,0.054812
3679.3,0.054947
3681.91,0.055267
3684.53,0.055595
3687.15,0.055793
3689.78,0.055929
3692.4,0.055915
3695.04,0.05596
3697.67,0.056158
3700.31,0.056399
3702.95,0.056625
3705.6,0.056912
3708.25,0.057083
3710.91,0.057094
3713.56,0.057151
3716.23,0.057317
3718.89,0.057616
3721.56,0.05787
3724.23,0.058213
3726.91,0.058451
3729.59,0.05862
3732.28,0.05892
3734.97,0.059069
3737.66,0.059267
3740.36,0.059411
3743.06,0.05955
3745.76,0.059787
3748.47,0.060303
3751.18,0.060654
3753.9,0.06074
3756.62,0.060972
3759.34,0.061233
3762.07,0.061479
3764.8,0.06166
3767.54,0.061846
3770.28,0.062176
3773.02,0.062432
3775.77,0.062768
3778.52,0.063045
3781.28,0.063029
3784.04,0.063204
3786.8,0.063434
3789.57,0.06367
3792.34,0.063949
3795.12,0.064088
3797.9,0.064261
3800.69,0.064416
3803.47,0.064601
3806.27,0.064782
3809.06,0.064988
3811.86,0.064964
3814.67,0.065052
3817.48,0.06518
3820.29,0.065274
3823.11,0.065231
3825.93,0.065258
3828.76,0.065205
3831.59,0.064809
3834.42,0.064488
3837.26,0.064201
3840.1,0.063756
3842.95,0.063557
3845.8,0.063266
3848.65,0.062905
3851.51,0.062814
3854.38,0.062892
3857.24,0.062797
3860.12,0.062752
3862.99,0.062651
3865.87,0.062675
3868.76,0.06281
3871.65,0.062909
3874.54,0.062854
3877.44,0.062604
3880.34,0.062465
3883.25,0.062366
3886.16,0.062213
3889.07,0.062186
3891.99,0.062184
3894.92,0.062029
3897.85,0.061831
3900.78,0.061746
3903.72,0.061673
3906.66,0.061494
3909.6,0.061368
3912.55,0.061375
3915.51,0.061118
3918.47,0.060592
3921.43,0.060042
3924.4,0.059741
3927.38,0.059444
3930.35,0.059106
3933.33,0.058704
3936.32,0.058208
3939.31,0.057799
3942.31,0.057472
3945.31,0.056954
3948.31,0.056399
3951.32,0.056026
3954.34,0.055533
3957.35,0.055015
3960.38,0.054562
3963.41,0.05412
3966.44,0.05373
3969.48,0.053609
3972.52,0.053574
3975.56,0.053719
3978.61,0.054212
3981.67,0.054655
3984.73,0.055157
3987.8,0.055902
3990.87,0.056548
3993.94,0.056837
3997.02,0.057081
4000.1,0.057342
4003.19,0.057653
4006.29,0.057823
4009.39,0.057916
4012.49,0.057848
4015.6,0.057662
4018.71,0.057476
4021.83,0.057162
4024.95,0.056901
4028.08,0.056565
4031.21,0.056222
4034.35,0.055922
4037.49,0.055707
4040.64,0.055438
4043.79,0.054971
4046.94,0.054659
4050.11,0.054354
4053.27,0.053821
4056.44,0.053509
4059.62,0.053407
4062.8,0.053202
4065.99,0.052968
4069.18,0.052711
4072.38,0.052565
4075.58,0.052769
4078.78,0.053085
4082.0,0.05341
4085.21,0.053553
4088.43,0.05381
4091.66,0.054361
4094.89,0.054746
4098.13,0.055077
4101.37,0.055389
4104.62,0.055676
4107.87,0.055986
4111.13,0.056306
4114.39,0.056384
4117.66,0.056393
4120.93,0.056492
4124.21,0.056656
4127.5,0.056594
4130.79,0.056269
4134.08,0.056152
4137.38,0.056034
4140.68,0.055875
4143.99,0.05571
4147.31,0.055477
4150.63,0.055373
4153.95,0.055152
4157.29,0.05479
4160.62,0.054495
4163.96,0.054164
4167.31,0.053965
4170.66,0.053739
4174.02,0.053374
4177.39,0.053091
4180.75,0.052811
4184.13,0.052468
4187.51,0.052085
4190.89,0.051714
4194.28,0.051448
4197.68,0.051194
4201.08,0.051115
4204.49,0.050993
4207.9,0.050688
4211.32,0.050635
4214.74,0.050561
4218.17,0.050312
4221.61,0.050075
4225.05,0.049797
4228.5,0.049513
4231.95,0.049551
4235.4,0.049504
4238.87,0.049339
4242.34,0.049392
4245.81,0.049407
4249.29,0.049317
4252.78,0.049359
4256.27,0.049354
4259.77,0.049261
4263.27,0.049452
4266.78,0.04964
4270.29,0.049451
4273.81,0.049305
4277.34,0.049328
4280.87,0.049095
4284.41,0.048981
4287.95,0.04912
4291.5,0.049328
4295.06,0.049398
4298.62,0.049463
4302.19,0.049582
4305.76,0.049598
4309.34,0.049719
4312.92,0.049788
4316.52,0.049739
4320.11,0.049807
4323.72,0.050002
4327.32,0.050111
4330.94,0.050194
4334.56,0.050411
4338.19,0.05055
4341.82,0.050466
4345.46,0.050466
4349.11,0.050515
4352.76,0.050739
4356.42,0.05099
4360.08,0.051013
4363.75,0.051161
4367.43,0.051238
4371.11,0.051424
4374.8,0.051672
4378.49,0.051915
4382.19,0.052063
4385.9,0.052067
4389.61,0.052163
4393.33,0.052337
4397.06,0.052532
4400.79,0.052784
4404.53,0.053078
4408.28,0.053332
4412.03,0.053509
4415.79,0.053587
4419.55,0.053867
4423.32,0.054133
4427.1,0.054328
4430.88,0.054526
4434.68,0.054893
4438.47,0.055146
4442.28,0.05523
4446.08,0.055395
4449.9,0.055734
4453.72,0.056015
4457.55,0.056302
4461.39,0.05663
4465.23,0.05691
4469.08,0.057215
4472.94,0.057437
4476.8,0.057627
4480.67,0.057983
4484.55,0.05841
4488.43,0.058682
4492.32,0.058797
4496.21,0.058929
4500.12,0.059243
4504.03,0.059728
4507.94,0.060008
4511.87,0.060229
4515.8,0.060565
4519.73,0.06076
4523.68,0.060948
4527.63,0.061435
4531.59,0.061866
4535.55,0.062145
4539.52,0.062419
4543.5,0.06271
4547.49,0.062982
4551.48,0.063223
4555.48,0.063546
4559.49,0.063998
4563.5,0.064338
4567.52,0.064603
4571.55,0.064915
4575.58,0.065203
4579.63,0.065349
4583.67,0.065649
4587.73,0.066067
4591.79,0.06639
4595.86,0.066755
4599.94,0.067202
4604.03,0.067516
4608.12,0.067821
4612.22,0.068195
4616.33,0.068557
4620.44,0.068958
4624.56,0.069322
4628.69,0.069643
4632.83,0.069906
4636.97,0.07018
4641.12,0.070627
4645.28,0.071052
4649.45,0.071445
4653.62,0.071821
4657.8,0.072155
4661.99,0.0724
4666.19,0.072568
4670.39,0.072714
4674.6,0.072735
4678.82,0.07229
4683.05,0.071377
4687.28,0.070247
4691.52,0.069366
4695.77,0.069773
4700.03,0.071277
4704.3,0.072812
4708.57,0.073995
4712.85,0.074771
4717.14,0.075308
4721.43,0.075841
4725.74,0.076292
4730.05,0.07648
4734.37,0.076797
4738.7,0.077338
4743.03,0.077982
4747.38,0.078555
4751.73,0.079032
4756.09,0.07959
4760.45,0.080297
4764.83,0.081078
4769.21,0.081867
4773.6,0.082719
4778.0,0.083495
4782.41,0.084176
4786.83,0.084839
4791.25,0.085679
4795.68,0.086586
4800.13,0.087413
4804.57,0.088276
4809.03,0.089147
4813.5,0.090093
4817.97,0.090905
4822.45,0.091646
4826.94,0.092388
4831.44,0.093149
4835.95,0.094005
4840.46,0.094954
4844.99,0.095756
4849.52,0.09649
4854.06,0.097225
4858.61,0.09795
4863.17,0.098507
4867.73,0.099148
4872.31,0.099978
4876.89,0.100743
4881.48,0.101424
4886.08,0.101994
4890.69,0.102773
4895.31,0.103465
4899.94,0.104097
4904.57,0.10475
4909.22,0.105327
4913.87,0.105842
4918.53,0.106304
4923.21,0.106851
4927.88,0.107366
4932.57,0.107881
4937.27,0.108316
4941.98,0.108765
4946.69,0.109243
4951.42,0.109617
4956.15,0.109858
4960.9,0.110278
4965.65,0.110687
4970.41,0.111067
4975.18,0.111362
4979.96,0.111514
4984.75,0.111693
4989.54,0.111883
4994.35,0.112072
4999.17,0.112405
5003.99,0.112658
5008.83,0.112823
5013.67,0.112903
5018.52,0.113111
5023.39,0.113328
5028.26,0.113411
5033.14,0.113361
5038.03,0.113288
5042.93,0.113462
5047.84,0.113586
5052.76,0.113438
5057.69,0.113429
5062.63,0.113506
5067.58,0.113458
5072.54,0.11337
5077.51,0.113303
5082.49,0.113215
5087.47,0.113179
5092.47,0.112952
5097.48,0.112733
5102.5,0.112443
5107.52,0.112206
5112.56,0.112025
5117.61,0.111826
5122.66,0.111664
5127.73,0.111622
5132.81,0.111532
5137.89,0.111315
5142.99,0.111211
5148.1,0.111163
5153.22,0.110968
5158.34,0.110911
5163.48,0.110826
5168.63,0.110681
5173.79,0.110453
5178.96,0.110189
5184.13,0.109847
5189.32,0.109564
5194.52,0.109153
5199.73,0.108622
5204.96,0.108149
5210.19,0.107609
5215.43,0.107021
5220.68,0.106453
5225.94,0.105877
5231.22,0.105216
5236.5,0.10444
5241.79,0.103737
5247.1,0.102956
5252.42,0.102256
5257.74,0.101612
5263.08,0.100959
5268.43,0.100411
5273.79,0.100009
5279.16,0.099566
5284.54,0.09912
5289.93,0.098702
5295.34,0.098332
5300.75,0.097939
5306.18,0.097704
5311.61,0.097404
5317.06,0.097202
5322.52,0.096937
5327.99,0.09653
5333.47,0.096095
5338.96,0.095728
5344.47,0.09531
5349.98,0.094963
5355.51,0.094536
5361.05,0.093895
5366.6,0.09332
5372.16,0.092811
5377.73,0.092209
5383.32,0.091608
5388.91,0.090947
5394.52,0.090219
5400.14,0.089414
5405.77,0.088747
5411.41,0.088065
5417.07,0.087229
5422.74,0.086425
5428.41,0.085545
5434.1,0.084527
5439.81,0.083778
5445.52,0.082763
5451.25,0.081695
5456.98,0.080631
5462.73,0.079773
5468.5,0.078888
5474.27,0.077761
5480.06,0.076675
5485.86,0.075508
5491.67,0.074313
5497.49,0.073126
5503.33,0.071879
5509.18,0.070634
5515.04,0.069168
5520.91,0.067649
5526.8,0.066019
5532.69,0.064165
5538.61,0.062264
5544.53,0.060344
5550.47,0.05816
5556.41,0.055827
5562.38,0.053328
5568.35,0.05111
5574.34,0.049157
5580.34,0.047313
5586.35,0.04569
5592.38,0.044547
5598.42,0.043793
5604.47,0.043107
5610.54,0.042576
5616.61,0.042446
5622.71,0.042619
5628.81,0.043065
5634.93,0.04368
5641.06,0.044293
5647.21,0.044719
5653.36,0.044857
5659.54,0.045047
5665.72,0.045018
5671.92,0.045075
5678.13,0.044974
5684.36,0.044531
5690.6,0.044076
5696.85,0.043576
5703.12,0.043107
5709.4,0.042826
5715.69,0.04236
5722.0,0.041692
5728.33,0.041226
5734.66,0.040984
5741.01,0.040805
5747.38,0.040661
5753.76,0.040242
5760.15,0.039932
5766.56,0.040188
5772.98,0.039991
5779.41,0.0397
5785.86,0.039855
5792.33,0.039854
5798.81,0.039793
5805.3,0.039757
5811.81,0.039587
5818.33,0.039565
5824.87,0.039655
5831.42,0.039366
5837.99,0.039142
5844.57,0.039105
5851.17,0.038981
5857.78,0.03884
5864.41,0.038755
5871.05,0.038576
5877.7,0.038539
5884.38,0.038632
5891.06,0.037928
5897.76,0.037811
5904.48,0.037486
5911.21,0.037155
5917.96,0.037367
5924.73,0.037314
5931.5,0.03717
5938.3,0.037088
5945.11,0.036518
5951.93,0.036224
5958.78,0.03619
5965.63,0.035921
5972.51,0.035768
5979.39,0.03535
5986.3,0.035182
5993.22,0.034981
6000.16,0.034372
6007.11,0.034096
6014.08,0.034081
6021.06,0.03378
6028.06,0.033532
6035.08,0.033424
6042.12,0.03326
6049.17,0.033097
6056.23,0.032351
6063.32,0.031593
6070.42,0.031708
6077.53,0.031473
6084.67,0.030872
6091.82,0.030552
6098.98,0.030357
6106.17,0.030178
6113.37,0.029996
6120.58,0.029406
6127.82,0.028773
6135.07,0.028645
6142.34,0.028495
6149.63,0.028072
6156.93,0.027697
6164.25,0.02738
6171.59,0.026971
6178.95,0.026589
6186.32,0.026416
6193.71,0.025947
6201.12,0.025415
6208.54,0.025072
6215.99,0.024658
6223.45,0.024349
6230.93,0.024015
6238.43,0.023579
6245.95,0.023166
6253.48,0.022869
6261.03,0.022542
6268.6,0.022027
6276.19,0.021445
6283.8,0.021067
6291.43,0.020851
6299.07,0.020621
6306.73,0.020222
6314.42,0.019816
6322.12,0.019595
6329.84,0.019378
6337.57,0.019219
6345.33,0.019323
6353.11,0.019192
6360.9,0.019287
6368.72,0.019867
6376.55,0.020554
6384.4,0.021543
6392.27,0.023028
6400.17,0.025043
6408.08,0.027732
6416.01,0.03087
6423.96,0.034735
6431.93,0.039361
6439.92,0.045009
6447.93,0.051824
6455.96,0.059674
6464.01,0.069161
6472.08,0.080173
6480.17,0.093101
6488.28,0.108058
6496.41,0.125554
6504.56,0.146895
6512.73,0.170065
6520.92,0.194003
6529.14,0.221518
6537.37,0.249765
6545.63,0.277615
6553.9,0.304993
6562.2,0.331285
6570.51,0.353776
6578.85,0.372791
6587.21,0.387256
6595.59,0.397755
6603.99,0.405406
6612.42,0.412237
6620.86,0.418437
6629.33,0.424121
6637.82,0.428143
6646.33,0.431175
6654.86,0.432568
6663.41,0.433021
6671.99,0.43173
6680.59,0.429001
6689.21,0.424764
6697.85,0.419691
6706.51,0.414035
6715.2,0.407746
6723.91,0.400911
6732.64,0.394301
6741.4,0.387046
6750.18,0.378696
6758.98,0.367436
6767.8,0.353038
6776.65,0.337083
6785.52,0.322349
6794.41,0.310616
6803.33,0.301244
6812.27,0.293514
6821.23,0.286893
6830.22,0.280551
6839.23,0.274842
6848.26,0.269908
6857.32,0.265443
6866.4,0.260822
6875.51,0.255904
6884.64,0.251402
6893.8,0.247361
6902.98,0.243125
6912.18,0.238943
6921.41,0.234653
6930.66,0.230797
6939.94,0.226958
6949.24,0.22334
6958.57,0.219806
6967.92,0.216167
6977.3,0.212649
6986.7,0.209623
6996.13,0.206401
7005.59,0.203164
7015.07,0.199805
7024.57,0.196104
7034.1,0.191908
7043.66,0.187791
7053.25,0.18345
7062.85,0.179454
7072.49,0.176712
7082.15,0.175655
7091.84,0.175759
7101.55,0.175737
7111.3,0.174404
7121.06,0.171611
7130.86,0.16763
7140.68,0.163153
7150.53,0.158546
7160.41,0.153797
7170.31,0.149164
7180.24,0.144867
7190.2,0.140819
7200.19,0.137181
7210.2,0.133742
7220.24,0.130505
7230.31,0.127697
7240.41,0.125174
7250.54,0.122796
7260.69,0.120731
7270.88,0.118916
7281.09,0.116978
7291.33,0.115046
7301.6,0.113456
7311.9,0.112036
7322.22,0.110935
7332.58,0.10988
7342.97,0.108754
7353.38,0.107697
7363.83,0.106579
7374.3,0.105409
7384.81,0.104365
7395.34,0.103405
7405.91,0.102483
7416.5,0.101475
7427.13,0.100513
7437.78,0.099845
7448.47,0.099175
7459.19,0.098388
7469.94,0.097576
7480.71,0.096758
7491.52,0.095999
7502.37,0.095396
7513.24,0.094732
7524.14,0.094111
7535.08,0.093598
7546.05,0.092959
7557.05,0.092481
7568.08,0.092053
7579.15,0.091612
7590.24,0.091298
7601.37,0.091128
7612.53,0.090847
7623.73,0.090447
7634.96,0.090069
7646.22,0.089826
7657.51,0.089624
7668.84,0.089414
7680.2,0.089238
7691.59,0.08905
7703.02,0.088946
7714.49,0.088932
7725.98,0.088647
7737.52,0.088364
7749.08,0.088388
7760.68,0.088397
7772.32,0.088282
7783.99,0.088264
7795.69,0.088267
7807.43,0.088134
7819.21,0.087948
7831.02,0.088004
7842.87,0.088256
7854.75,0.08845
7866.67,0.088521
7878.62,0.088559
7890.62,0.088716
7902.64,0.089065
7914.71,0.089233
7926.81,0.089321
7938.95,0.089405
7951.13,0.089485
7963.34,0.08952
7975.59,0.089627
7987.88,0.089859
8000.21,0.090138
8012.57,0.090179
8024.98,0.0901
8037.42,0.090266
8049.9,0.090611
8062.42,0.090872
8074.98,0.091248
8087.57,0.091603
8100.21,0.091771
8112.89,0.092092
8125.6,0.092658
8138.36,0.093092
8151.16,0.09343
8163.99,0.093855
8176.87,0.094155
8189.79,0.09423
8202.75,0.094565
8215.75,0.094883
8228.79,0.094991
8241.87,0.095157
8254.99,0.095372
8268.16,0.095524
8281.37,0.095626
8294.62,0.095821
8307.91,0.096272
8321.24,0.096469
8334.62,0.09661
8348.04,0.097023
8361.51,0.097368
8375.02,0.097415
8388.57,0.097583
8402.16,0.097862
8415.8,0.097932
8429.49,0.097937
8443.22,0.097977
8456.99,0.098018
8470.81,0.098023
8484.67,0.097965
8498.58,0.097824
8512.54,0.097702
8526.54,0.097656
8540.58,0.097811
8554.68,0.097954
8568.82,0.09795
8583.0,0.098206
8597.24,0.098521
8611.52,0.098768
8625.85,0.099148
8640.23,0.099582
8654.65,0.099885
8669.12,0.100343
8683.64,0.10069
8698.21,0.101026
8712.83,0.101378
8727.5,0.101599
8742.22,0.10174
8756.99,0.101948
8771.8,0.102078
8786.67,0.102215
8801.59,0.102399
8816.56,0.102589
8831.58,0.102762
8846.65,0.103025
8861.77,0.103029
8876.94,0.103089
8892.17,0.103284
8907.45,0.103531
8922.78,0.103465
8938.16,0.103239
8953.6,0.103219
8969.09,0.103246
8984.64,0.102753
9000.23,0.102227
9015.89,0.101979
9031.59,0.101897
9047.36,0.101495
9063.17,0.100789
9079.05,0.100037
9094.97,0.099241
9110.96,0.098343
9127.0,0.097211
9143.1,0.095925
9159.25,0.094578
9175.46,0.092935
9191.73,0.091239
9208.06,0.089361
9224.44,0.087336
9240.88,0.085191
9257.38,0.082418
9273.94,0.078767
9290.56,0.074634
9307.24,0.069911
9323.98,0.064522
9340.78,0.064265
9357.64,0.082506
9374.57,0.1068
9391.55,0.110968
9408.59,0.104642
9425.7,0.101519
9442.87,0.101601
9460.1,0.102549
9477.4,0.103562
9494.75,0.104398
9512.17,0.104303
9529.66,0.103009
9547.21,0.100991
9564.83,0.100623
9582.5,0.101723
9600.25,0.102037
9618.06,0.101428
9635.94,0.100495
9653.88,0.099726
9671.89,0.098744
9689.97,0.097742
9708.12,0.096899
9726.33,0.096124
9744.62,0.095296
9762.97,0.09469
9781.39,0.093965
9799.88,0.092975
9818.44,0.092116
9837.07,0.091376
9855.77,0.090759
9874.54,0.090045
9893.39,0.089184
9912.3,0.088623
9931.29,0.08815
9950.36,0.08746
9969.49,0.086599
9988.7,0.085973
10007.98,0.0855
10027.34,0.08479
10046.77,0.083753
10066.28,0.082982
10085.87,0.082352
10105.53,0.081602
10125.26,0.081029
10145.08,0.080379
10164.97,0.079753
10184.94,0.079187
10204.99,0.078367
10225.12,0.077548
10245.33,0.076932
10265.61,0.076626
10285.98,0.075998
10306.43,0.075273
10326.96,0.07468
10347.57,0.073942
10368.27,0.073219
10389.05,0.072706
10409.91,0.072113
10430.86,0.071452
10451.88,0.070707
10473.0,0.06992
10494.2,0.069201
10515.49,0.068633
10536.86,0.068179
10558.32,0.067702
10579.87,0.067113
10601.5,0.066593
10623.23,0.066134
10645.04,0.065643
10666.94,0.065198
10688.94,0.064763
10711.02,0.063978
10733.2,0.06319
10755.47,0.062689
10777.83,0.062343
10800.28,0.062014
10822.83,0.061534
10845.47,0.061087
10868.21,0.060771
10891.04,0.060433
10913.97,0.06032
10936.99,0.060017
10960.12,0.059666
10983.34,0.059409
11006.66,0.059236
11030.07,0.05915
11053.59,0.05896
11077.21,0.058633
11100.93,0.05848
11124.75,0.058673
11148.68,0.058823
11172.71,0.058582
11196.84,0.05818
11221.07,0.057793
11245.41,0.057107
11269.86,0.055824
11294.41,0.054471
11319.07,0.053525
11343.84,0.053492
11368.72,0.053675
11393.7,0.054429
11418.8,0.055893
11444.01,0.05843
11469.33,0.06243
11494.76,0.066939
11520.3,0.070884
11545.96,0.073749
11571.73,0.075308
11597.62,0.0757
11623.62,0.075207
11649.74,0.074658
11675.98,0.074598
11702.34,0.074634
11728.81,0.07505
11755.41,0.075662
11782.13,0.0762
11808.96,0.077062
11835.92,0.078517
11863.01,0.080275
11890.22,0.082028
11917.55,0.083645
11945.01,0.085071
11972.6,0.086635
12000.31,0.088074
12028.16,0.089505
12056.13,0.090679
12084.23,0.091347
12112.46,0.091964
12140.83,0.092395
12169.33,0.092618
12197.96,0.093107
12226.73,0.093346
12255.64,0.093397
12284.68,0.093105
12313.86,0.092813
12343.18,0.092495
12372.64,0.091741
12402.24,0.091051
12431.98,0.09067
12461.86,0.090219
12491.89,0.089768
12522.07,0.08939
12552.38,0.088789
12582.85,0.088074
12613.47,0.087687
12644.23,0.087305
12675.15,0.086825
12706.21,0.086444
12737.43,0.085768
12768.81,0.085144
12800.33,0.08489
12832.02,0.084748
12863.86,0.083837
12895.86,0.083057
12928.02,0.082555
12960.34,0.081849
12992.82,0.081529
13025.46,0.081003
13058.27,0.080251
13091.25,0.080014
13124.39,0.079419
13157.7,0.078606
13191.18,0.078212
13224.83,0.077781
13258.66,0.077354
13292.65,0.076739
13326.83,0.075928
13361.17,0.07507
13395.7,0.073951
13430.4,0.073221
13465.29,0.072473
13500.35,0.071364
13535.6,0.070306
13571.03,0.069161
13606.65,0.067949
13642.46,0.066299
13678.46,0.064681
13714.64,0.062846
13751.02,0.060831
13787.59,0.058812
13824.36,0.05595
13861.32,0.052171
13898.49,0.051486
13935.85,0.058867
13973.41,0.069201
14011.17,0.074397
14049.15,0.074966
14087.32,0.074941
14125.71,0.074933
14164.3,0.075127
14203.11,0.076147
14242.13,0.077588
14281.36,0.079132
14320.81,0.080762
14360.49,0.081296
14400.38,0.080474
14440.49,0.079125
14480.82,0.077464
14521.39,0.075467
14562.18,0.073431
14603.2,0.07187
14644.45,0.070539
14685.93,0.069847
14727.66,0.069254
14769.62,0.069316
14811.81,0.069554
14854.25,0.070238
14896.94,0.071668
14939.87,0.073311
14983.05,0.075034
15026.48,0.077055
15070.16,0.078986
15114.1,0.080423
15158.29,0.081608
15202.74,0.082732
15247.46,0.084067
15292.43,0.085697
15337.68,0.087267
15383.19,0.088375
15428.97,0.088915
15475.03,0.089469
15521.36,0.089819
15567.97,0.089998
15614.87,0.08996
15662.04,0.089514
15709.5,0.089145
15757.25,0.088782
15805.29,0.088413
15853.62,0.088079
15902.26,0.087442
15951.19,0.087053
16000.42,0.086946
16049.95,0.086445
16099.8,0.086175
16149.95,0.086082
16200.42,0.086015
16251.21,0.086175
16302.31,0.086235
16353.74,0.086599
16405.49,0.086287
16457.57,0.085914
16509.98,0.086108
16562.73,0.085806
16615.82,0.085272
16669.24,0.084952
16723.02,0.084905
16777.14,0.084956
16831.61,0.085067
16886.43,0.085157
16941.62,0.085346
16997.16,0.085635
17053.08,0.085449
17109.36,0.085418
17166.01,0.085686
17223.04,0.086257
17280.45,0.086347
17338.24,0.086904
17396.43,0.087044
17455.0,0.086734
17513.97,0.087022
17573.34,0.086734
17633.11,0.0865
17693.29,0.086949
17753.89,0.086989
17814.9,0.086787
17876.33,0.087117
17938.18,0.08746
18000.47,0.087815
18063.19,0.088088
18126.35,0.088138
18189.95,0.087997
18254.0,0.088225
18318.5,0.088521
18383.46,0.088569
18448.88,0.088517
18514.77,0.088649
18581.13,0.088992
18647.97,0.08927
18715.29,0.08872
18783.1,0.088694
18851.4,0.089056
18920.2,0.088862
18989.51,0.088762
19059.32,0.088952
19129.65,0.088437
19200.5,0.088267
19271.88,0.088758
19343.79,0.089045
19416.24,0.088313
19489.23,0.087791
19562.77,0.087944
19636.88,0.087234
19711.54,0.086475
19786.78,0.086984
19862.59,0.087577
19938.98,0.087654
20015.96,0.087705
20093.55,0.087114
20171.73,0.087477
20250.53,0.088121
20329.94,0.087181
20409.98,0.086288
20490.65,0.08585
20571.96,0.085228
20653.92,0.084656
20736.54,0.084565
20819.82,0.084813
20903.77,0.084735
20988.4,0.083963
21073.72,0.082803
21159.73,0.08158
21246.46,0.080781
21333.89,0.080248
21422.04,0.079481
21510.93,0.077696
21600.56,0.076381
21690.94,0.076491
21782.08,0.076733
21873.99,0.076217
21966.67,0.074751
22060.15,0.074481
22154.42,0.074152
22249.51,0.073838
22345.41,0.07313
22442.14,0.072787
22539.72,0.072993
22638.14,0.071821
22737.43,0.071733
22837.6,0.071741
22938.65,0.069265
23040.6,0.06792
23143.46,0.067337
23247.24,0.065983
23351.96,0.063062
23457.63,0.062306
23564.25,0.062412
23671.85,0.061475
23780.44,0.059586
23890.02,0.060092
24000.63,0.060466
24112.26,0.059026
24224.93,0.056472
24338.66,0.054805
24453.47,0.054849
24569.36,0.052915
24686.36,0.053036
24804.47,0.053878
24923.73,0.051915
25044.13,0.052558
25165.71,0.048916
25288.46,0.045617
25412.43,0.048866
25537.61,0.051331
25664.04,0.050935
25791.72,0.046683
25920.68,0.041352
