Database of Origin,University of Winnipeg Spectrophotometer Facility
Sample Description,8. Sulfates - RELAB sulfate spectra from their data base  RELAB Archived sulfate spectra (as of Sept. 2004  more coming out later)
Date Added,2016-07-15 22:05:28.331275

Data ID,RLA_SUL_60          
Sample ID,cc-jfm-022
Mineral Name,MgSO4(syn)
Grain Size,brick
Viewing Geometry,30 / 30
Resolution,0.6-129
Material Class,Sulfate

Wavelength
901.06,0.342224
901.68,0.342463
902.31,0.343489
902.94,0.343719
903.57,0.343643
904.2,0.343546
904.83,0.343174
905.46,0.343807
906.1,0.344677
906.73,0.345106
907.37,0.344782
908.0,0.344507
908.64,0.344555
909.28,0.345127
909.91,0.34536
910.55,0.345255
911.19,0.345671
911.83,0.34602
912.48,0.346201
913.12,0.346239
913.76,0.346027
914.41,0.346334
915.05,0.34655
915.7,0.346712
916.35,0.347275
917.0,0.347527
917.65,0.34724
918.3,0.347233
918.95,0.348206
919.6,0.348528
920.25,0.348728
920.91,0.349051
921.56,0.348862
922.22,0.348003
922.88,0.347937
923.53,0.349598
924.19,0.348331
924.85,0.344027
925.51,0.346331
926.17,0.348326
926.84,0.349022
927.5,0.349033
928.16,0.348921
928.83,0.350561
929.5,0.35124
930.16,0.350292
930.83,0.350401
931.5,0.350855
932.17,0.350267
932.84,0.349113
933.51,0.349144
934.19,0.350588
934.86,0.350685
935.54,0.350515
936.21,0.350559
936.89,0.350733
937.57,0.350992
938.25,0.35103
938.93,0.350924
939.61,0.351259
940.29,0.351547
940.97,0.351559
941.66,0.351465
942.34,0.351614
943.03,0.351803
943.71,0.352158
944.4,0.352276
945.09,0.352617
945.78,0.352753
946.47,0.352762
947.16,0.353401
947.85,0.354326
948.55,0.354477
949.24,0.354601
949.94,0.355078
950.64,0.355482
951.33,0.35545
952.03,0.35561
952.73,0.356022
953.43,0.356625
954.14,0.356979
954.84,0.357038
955.54,0.357544
956.25,0.357706
956.96,0.357843
957.66,0.357904
958.37,0.357944
959.08,0.357916
959.79,0.358042
960.5,0.35832
961.21,0.358589
961.93,0.358511
962.64,0.358252
963.36,0.358496
964.08,0.358698
964.79,0.358883
965.51,0.358839
966.23,0.358818
966.95,0.359224
967.68,0.358864
968.4,0.358847
969.12,0.358883
969.85,0.358829
970.57,0.358961
971.3,0.359119
972.03,0.359238
972.76,0.359146
973.49,0.35903
974.22,0.359251
974.96,0.359356
975.69,0.359314
976.43,0.359283
977.16,0.359282
977.9,0.359663
978.64,0.359894
979.38,0.359795
980.12,0.360025
980.86,0.360153
981.6,0.360289
982.35,0.360487
983.09,0.360384
983.84,0.360682
984.59,0.361025
985.34,0.360937
986.09,0.361055
986.84,0.361261
987.59,0.361418
988.34,0.361347
989.1,0.361359
989.85,0.361971
990.61,0.362152
991.37,0.362246
992.13,0.362236
992.89,0.362299
993.65,0.362345
994.41,0.36278
995.17,0.36294
995.94,0.362976
996.71,0.363241
997.47,0.363522
998.24,0.363678
999.01,0.363819
999.78,0.363932
1000.55,0.364105
1001.33,0.364651
1002.1,0.364981
1002.88,0.364889
1003.65,0.365068
1004.43,0.365541
1005.21,0.365686
1005.99,0.365402
1006.77,0.365677
1007.56,0.366358
1008.34,0.366606
1009.13,0.366543
1009.91,0.366484
1010.7,0.36665
1011.49,0.366886
1012.28,0.366819
1013.07,0.36717
1013.86,0.367317
1014.66,0.367661
1015.45,0.367722
1016.25,0.367958
1017.05,0.36821
1017.85,0.368244
1018.65,0.368227
1019.45,0.368341
1020.25,0.368664
1021.05,0.369026
1021.86,0.369156
1022.67,0.369465
1023.47,0.36965
1024.28,0.36978
1025.09,0.369793
1025.9,0.369753
1026.72,0.369951
1027.53,0.370115
1028.35,0.370295
1029.16,0.370464
1029.98,0.370686
1030.8,0.370941
1031.62,0.370958
1032.44,0.371262
1033.27,0.371618
1034.09,0.371559
1034.92,0.37141
1035.75,0.371347
1036.57,0.37167
1037.4,0.37196
1038.23,0.372021
1039.07,0.372118
1039.9,0.372246
1040.74,0.372339
1041.57,0.37236
1042.41,0.372473
1043.25,0.372787
1044.09,0.373125
1044.93,0.37343
1045.78,0.373644
1046.62,0.373602
1047.47,0.373583
1048.31,0.373497
1049.16,0.373817
1050.01,0.374199
1050.87,0.374205
1051.72,0.374027
1052.57,0.374077
1053.43,0.374254
1054.29,0.374468
1055.14,0.37463
1056.0,0.374662
1056.87,0.374779
1057.73,0.374819
1058.59,0.374832
1059.46,0.374994
1060.33,0.375174
1061.19,0.375349
1062.06,0.375458
1062.93,0.375519
1063.81,0.375584
1064.68,0.375725
1065.56,0.375868
1066.43,0.376015
1067.31,0.375942
1068.19,0.375738
1069.07,0.375967
1069.96,0.376139
1070.84,0.376078
1071.73,0.375978
1072.61,0.375898
1073.5,0.376217
1074.39,0.376329
1075.28,0.376389
1076.18,0.376465
1077.07,0.376427
1077.97,0.376537
1078.87,0.376572
1079.76,0.376724
1080.67,0.376661
1081.57,0.376461
1082.47,0.376596
1083.38,0.376728
1084.28,0.376646
1085.19,0.376637
1086.1,0.376776
1087.01,0.376883
1087.92,0.376944
1088.84,0.377075
1089.75,0.37719
1090.67,0.377279
1091.59,0.377251
1092.51,0.377254
1093.43,0.377342
1094.36,0.377354
1095.28,0.377258
1096.21,0.377258
1097.14,0.377346
1098.07,0.37735
1099.0,0.377295
1099.93,0.377304
1100.86,0.377466
1101.8,0.377611
1102.74,0.377531
1103.68,0.377365
1104.62,0.377382
1105.56,0.377407
1106.51,0.377399
1107.45,0.377312
1108.4,0.377329
1109.35,0.377392
1110.3,0.377501
1111.25,0.377377
1112.2,0.377314
1113.16,0.377392
1114.12,0.377319
1115.08,0.377218
1116.04,0.377243
1117.0,0.377378
1117.96,0.377563
1118.93,0.377445
1119.89,0.37739
1120.86,0.377254
1121.83,0.377127
1122.81,0.377136
1123.78,0.377199
1124.75,0.377377
1125.73,0.377451
1126.71,0.377356
1127.69,0.37722
1128.67,0.377073
1129.66,0.37698
1130.64,0.377033
1131.63,0.377104
1132.62,0.37705
1133.61,0.377104
1134.6,0.377207
1135.6,0.377016
1136.59,0.376825
1137.59,0.376795
1138.59,0.37665
1139.59,0.376406
1140.6,0.376404
1141.6,0.376326
1142.61,0.376114
1143.62,0.375963
1144.63,0.375748
1145.64,0.375643
1146.65,0.37549
1147.67,0.375189
1148.69,0.374836
1149.7,0.374437
1150.73,0.374014
1151.75,0.373669
1152.77,0.373465
1153.8,0.373295
1154.83,0.373062
1155.86,0.372631
1156.89,0.372074
1157.92,0.371601
1158.96,0.37138
1160.0,0.371075
1161.04,0.370787
1162.08,0.370384
1163.12,0.370016
1164.17,0.369932
1165.21,0.369802
1166.26,0.369623
1167.31,0.36948
1168.37,0.369251
1169.42,0.369057
1170.48,0.369024
1171.53,0.368828
1172.59,0.368589
1173.66,0.368519
1174.72,0.368399
1175.79,0.368235
1176.85,0.368359
1177.92,0.368536
1179.0,0.368433
1180.07,0.368277
1181.15,0.368353
1182.22,0.368422
1183.3,0.368612
1184.39,0.368742
1185.47,0.36874
1186.55,0.368626
1187.64,0.36857
1188.73,0.368822
1189.82,0.368937
1190.92,0.368732
1192.01,0.368792
1193.11,0.368959
1194.21,0.3689
1195.31,0.368925
1196.41,0.369091
1197.52,0.369246
1198.63,0.369219
1199.74,0.369131
1200.85,0.369196
1201.96,0.369205
1203.08,0.369301
1204.2,0.369469
1205.32,0.369633
1206.44,0.369596
1207.57,0.369678
1208.69,0.369726
1209.82,0.36993
1210.95,0.369968
1212.08,0.370052
1213.22,0.370279
1214.36,0.370338
1215.49,0.370316
1216.64,0.370401
1217.78,0.370384
1218.93,0.370405
1220.07,0.370495
1221.22,0.370605
1222.37,0.370646
1223.53,0.3708
1224.69,0.370913
1225.84,0.370941
1227.01,0.371021
1228.17,0.371113
1229.33,0.371229
1230.5,0.371304
1231.67,0.371281
1232.84,0.371164
1234.02,0.371269
1235.19,0.371563
1236.37,0.371531
1237.55,0.371574
1238.74,0.371588
1239.92,0.371567
1241.11,0.371649
1242.3,0.371799
1243.49,0.371874
1244.69,0.371902
1245.88,0.371983
1247.08,0.371964
1248.28,0.372129
1249.49,0.372149
1250.69,0.37212
1251.9,0.372261
1253.11,0.372299
1254.32,0.372297
1255.54,0.372442
1256.76,0.372564
1257.98,0.372673
1259.2,0.372654
1260.43,0.372705
1261.65,0.37277
1262.88,0.372725
1264.11,0.372717
1265.35,0.372698
1266.59,0.372744
1267.83,0.372765
1269.07,0.372786
1270.31,0.372883
1271.56,0.37285
1272.81,0.372849
1274.06,0.372793
1275.31,0.3729
1276.57,0.372978
1277.83,0.372967
1279.09,0.372881
1280.35,0.372873
1281.62,0.372864
1282.89,0.372681
1284.16,0.372574
1285.43,0.372505
1286.71,0.372467
1287.99,0.372524
1289.27,0.372498
1290.56,0.37232
1291.84,0.372225
1293.13,0.37207
1294.42,0.37179
1295.72,0.371605
1297.01,0.371527
1298.31,0.371443
1299.62,0.371216
1300.92,0.370861
1302.23,0.370647
1303.54,0.370543
1304.85,0.370302
1306.17,0.369928
1307.48,0.369631
1308.81,0.36935
1310.13,0.369028
1311.45,0.368753
1312.78,0.368385
1314.11,0.368023
1315.45,0.367638
1316.79,0.367359
1318.13,0.367025
1319.47,0.366638
1320.81,0.366312
1322.16,0.365925
1323.51,0.365471
1324.86,0.365095
1326.22,0.364618
1327.58,0.363985
1328.94,0.363602
1330.31,0.363342
1331.67,0.362982
1333.04,0.362629
1334.42,0.362204
1335.79,0.361769
1337.17,0.361267
1338.55,0.360741
1339.94,0.360252
1341.32,0.359722
1342.71,0.35923
1344.11,0.358879
1345.5,0.358469
1346.9,0.357925
1348.3,0.357533
1349.71,0.357109
1351.11,0.35652
1352.52,0.355995
1353.94,0.355614
1355.35,0.355112
1356.77,0.354633
1358.19,0.354141
1359.62,0.353642
1361.05,0.353081
1362.48,0.352671
1363.91,0.352352
1365.35,0.351963
1366.79,0.351543
1368.23,0.351025
1369.68,0.350309
1371.13,0.349808
1372.58,0.349346
1374.04,0.348503
1375.5,0.34782
1376.96,0.347248
1378.42,0.346483
1379.89,0.34564
1381.36,0.344744
1382.84,0.343832
1384.31,0.342785
1385.79,0.341648
1387.28,0.340254
1388.76,0.338848
1390.25,0.33749
1391.75,0.33589
1393.24,0.334219
1394.74,0.332447
1396.25,0.330301
1397.75,0.328072
1399.26,0.325771
1400.78,0.323351
1402.29,0.320829
1403.81,0.318142
1405.33,0.31531
1406.86,0.312428
1408.39,0.309641
1409.92,0.306841
1411.46,0.303789
1413.0,0.300821
1414.54,0.297993
1416.08,0.295223
1417.63,0.292505
1419.19,0.289928
1420.74,0.287567
1422.3,0.28528
1423.87,0.283096
1425.43,0.281073
1427.0,0.279221
1428.57,0.277515
1430.15,0.275984
1431.73,0.274639
1433.32,0.27346
1434.9,0.272493
1436.49,0.271708
1438.09,0.271019
1439.69,0.27054
1441.29,0.270157
1442.89,0.269888
1444.5,0.269732
1446.11,0.269785
1447.73,0.269979
1449.35,0.270132
1450.97,0.270281
1452.6,0.270521
1454.23,0.27087
1455.86,0.27124
1457.5,0.271593
1459.14,0.271868
1460.79,0.272207
1462.43,0.27256
1464.09,0.272976
1465.74,0.273327
1467.4,0.273623
1469.07,0.273922
1470.73,0.274246
1472.41,0.274788
1474.08,0.275288
1475.76,0.275772
1477.44,0.276354
1479.13,0.277006
1480.82,0.277771
1482.51,0.278625
1484.21,0.2794
1485.91,0.280176
1487.62,0.281054
1489.33,0.28204
1491.04,0.282988
1492.76,0.283867
1494.48,0.284849
1496.21,0.285763
1497.94,0.286648
1499.67,0.287498
1501.41,0.288431
1503.15,0.2894
1504.9,0.290277
1506.65,0.291147
1508.4,0.292019
1510.16,0.292881
1511.92,0.293739
1513.69,0.294466
1515.46,0.295122
1517.23,0.295778
1519.01,0.296501
1520.79,0.297195
1522.58,0.297852
1524.37,0.298525
1526.17,0.299196
1527.97,0.299765
1529.77,0.300335
1531.58,0.3009
1533.39,0.301441
1535.21,0.301966
1537.03,0.302485
1538.86,0.303032
1540.69,0.303534
1542.52,0.304068
1544.36,0.304476
1546.2,0.304873
1548.05,0.305304
1549.9,0.305571
1551.76,0.305887
1553.62,0.306292
1555.48,0.306643
1557.35,0.306965
1559.23,0.30727
1561.11,0.307518
1562.99,0.307837
1564.88,0.308167
1566.77,0.308487
1568.66,0.308781
1570.57,0.308947
1572.47,0.309204
1574.38,0.309496
1576.3,0.309725
1578.22,0.309908
1580.14,0.310028
1582.07,0.310183
1584.01,0.31045
1585.95,0.310659
1587.89,0.310795
1589.84,0.310932
1591.79,0.31105
1593.75,0.311192
1595.71,0.311308
1597.68,0.311504
1599.65,0.311636
1601.63,0.311663
1603.61,0.311722
1605.6,0.311855
1607.59,0.312016
1609.59,0.312231
1611.59,0.312334
1613.6,0.312338
1615.61,0.312418
1617.62,0.312637
1619.65,0.312716
1621.67,0.312714
1623.71,0.312803
1625.74,0.31299
1627.79,0.313078
1629.83,0.313198
1631.89,0.313282
1633.94,0.313318
1636.01,0.31337
1638.07,0.313404
1640.15,0.313492
1642.23,0.313654
1644.31,0.313671
1646.4,0.313745
1648.5,0.313749
1650.6,0.313793
1652.7,0.313829
1654.81,0.313953
1656.93,0.314045
1659.05,0.314053
1661.18,0.314009
1663.31,0.314045
1665.45,0.314053
1667.59,0.314096
1669.74,0.314152
1671.89,0.314058
1674.05,0.313906
1676.22,0.313835
1678.39,0.313732
1680.57,0.313597
1682.75,0.313503
1684.94,0.313427
1687.13,0.313257
1689.33,0.313097
1691.54,0.312908
1693.75,0.312691
1695.96,0.312395
1698.19,0.312145
1700.42,0.311844
1702.65,0.311481
1704.89,0.31119
1707.14,0.310907
1709.39,0.31061
1711.65,0.310242
1713.91,0.309853
1716.18,0.30946
1718.46,0.309175
1720.74,0.308863
1723.03,0.308514
1725.32,0.308134
1727.62,0.307899
1729.93,0.307739
1732.24,0.307457
1734.56,0.307117
1736.89,0.3069
1739.22,0.306759
1741.56,0.306587
1743.9,0.306421
1746.25,0.306213
1748.61,0.306004
1750.97,0.305859
1753.34,0.305714
1755.71,0.305517
1758.1,0.305332
1760.49,0.305124
1762.88,0.304941
1765.28,0.3048
1767.69,0.304581
1770.11,0.304346
1772.53,0.304184
1774.96,0.303986
1777.39,0.303741
1779.83,0.30349
1782.28,0.303337
1784.73,0.303139
1787.2,0.302891
1789.66,0.302626
1792.14,0.302404
1794.62,0.302151
1797.11,0.301949
1799.61,0.301844
1802.11,0.301628
1804.62,0.301386
1807.14,0.301292
1809.66,0.301235
1812.19,0.301102
1814.73,0.300917
1817.28,0.300777
1819.83,0.300646
1822.39,0.300449
1824.95,0.300184
1827.53,0.299904
1830.11,0.299677
1832.7,0.299347
1835.29,0.298855
1837.9,0.298315
1840.51,0.297674
1843.13,0.29694
1845.75,0.296127
1848.38,0.295069
1851.02,0.293839
1853.67,0.29245
1856.33,0.290815
1858.99,0.289038
1861.66,0.287004
1864.34,0.284641
1867.03,0.281893
1869.72,0.278917
1872.42,0.275457
1875.13,0.271599
1877.85,0.267279
1880.58,0.262329
1883.31,0.256849
1886.05,0.250898
1888.8,0.244394
1891.56,0.237225
1894.32,0.22945
1897.1,0.221064
1899.88,0.212124
1902.67,0.20289
1905.47,0.193726
1908.27,0.184671
1911.09,0.176073
1913.91,0.168289
1916.74,0.161396
1919.58,0.155449
1922.43,0.15045
1925.29,0.146332
1928.15,0.143162
1931.02,0.140852
1933.91,0.139318
1936.8,0.138527
1939.7,0.138348
1942.6,0.138559
1945.52,0.139208
1948.45,0.14031
1951.38,0.141787
1954.32,0.143438
1957.28,0.145128
1960.24,0.146978
1963.21,0.14896
1966.19,0.150879
1969.18,0.152948
1972.17,0.155111
1975.18,0.157249
1978.19,0.15938
1981.22,0.161537
1984.25,0.163759
1987.3,0.165939
1990.35,0.168058
1993.41,0.170244
1996.48,0.17239
1999.56,0.174479
2002.65,0.176598
2005.75,0.178656
2008.86,0.180649
2011.98,0.182701
2015.11,0.184687
2018.25,0.186453
2021.4,0.18807
2024.56,0.189653
2027.73,0.191357
2030.9,0.193047
2034.09,0.194517
2037.29,0.195911
2040.5,0.19726
2043.72,0.198645
2046.95,0.199982
2050.19,0.20126
2053.43,0.202614
2056.69,0.203932
2059.96,0.205181
2063.24,0.206472
2066.53,0.207741
2069.84,0.208933
2073.15,0.210094
2076.47,0.211235
2079.8,0.212496
2083.15,0.213753
2086.5,0.214911
2089.87,0.21608
2093.24,0.21719
2096.63,0.218227
2100.03,0.219353
2103.44,0.22043
2106.86,0.221365
2110.29,0.222227
2113.73,0.223112
2117.19,0.223976
2120.65,0.224861
2124.13,0.22566
2127.61,0.226421
2131.11,0.227114
2134.62,0.227755
2138.15,0.228382
2141.68,0.229132
2145.23,0.229851
2148.78,0.230547
2152.35,0.231199
2155.94,0.231806
2159.53,0.232344
2163.13,0.232803
2166.75,0.233381
2170.38,0.233908
2174.02,0.234314
2177.68,0.234663
2181.34,0.235058
2185.02,0.235523
2188.71,0.235908
2192.42,0.236195
2196.13,0.236458
2199.86,0.236835
2203.6,0.237106
2207.35,0.237206
2211.12,0.237379
2214.9,0.237558
2218.69,0.23761
2222.5,0.2376
2226.32,0.237486
2230.15,0.237379
2234.0,0.237232
2237.85,0.236927
2241.73,0.236502
2245.61,0.236065
2249.51,0.235552
2253.42,0.234821
2257.35,0.233904
2261.29,0.232891
2265.24,0.231709
2269.21,0.230526
2273.19,0.229187
2277.18,0.227589
2281.19,0.225742
2285.22,0.223772
2289.25,0.221537
2293.3,0.219036
2297.37,0.216379
2301.45,0.213537
2305.55,0.210417
2309.66,0.207113
2313.78,0.203569
2317.92,0.199854
2322.07,0.195803
2326.24,0.1915
2330.43,0.186983
2334.63,0.182304
2338.84,0.177454
2343.07,0.172581
2347.31,0.167664
2351.57,0.162737
2355.85,0.15781
2360.14,0.152969
2364.45,0.148338
2368.77,0.144026
2373.11,0.139898
2377.46,0.135843
2381.83,0.132082
2386.22,0.128599
2390.62,0.125452
2395.04,0.122717
2399.48,0.120152
2403.93,0.117836
2408.4,0.115919
2412.88,0.114233
2417.38,0.112751
2421.9,0.111553
2426.44,0.11059
2430.99,0.109783
2435.56,0.109095
2440.15,0.108492
2444.75,0.107874
2449.37,0.107347
2454.01,0.106855
2458.67,0.106298
2463.34,0.105759
2468.03,0.105097
2472.74,0.104317
2477.47,0.103508
2479.26,0.103436
2480.45,0.10338
2481.63,0.10318
2482.82,0.102756
2484.01,0.102342
2485.2,0.102361
2486.4,0.102524
2487.59,0.102003
2488.78,0.101345
2489.98,0.101205
2491.17,0.101437
2492.37,0.101126
2493.57,0.100951
2494.77,0.100873
2495.97,0.100256
2497.17,0.099704
2498.38,0.099824
2499.58,0.099652
2500.79,0.099245
2502.0,0.098786
2503.2,0.09857
2504.41,0.098091
2505.62,0.098101
2506.83,0.098535
2508.05,0.098443
2509.26,0.098565
2510.48,0.098222
2511.69,0.097222
2512.91,0.097022
2514.13,0.09726
2515.35,0.097465
2516.57,0.097514
2517.79,0.096849
2519.02,0.096231
2520.24,0.096328
2521.47,0.096763
2522.69,0.096201
2523.92,0.095663
2525.15,0.095437
2526.38,0.095474
2527.61,0.095428
2528.85,0.094891
2530.08,0.094364
2531.32,0.094235
2532.55,0.093956
2533.79,0.093902
2535.03,0.093658
2536.27,0.093584
2537.51,0.093467
2538.75,0.093021
2540.0,0.093322
2541.24,0.093144
2542.49,0.092408
2543.74,0.092343
2544.99,0.092172
2546.24,0.092491
2547.49,0.092958
2548.74,0.092883
2549.99,0.092322
2551.25,0.091839
2552.5,0.091701
2553.76,0.091571
2555.02,0.09148
2556.28,0.091402
2557.54,0.091735
2558.8,0.09177
2560.07,0.091582
2561.33,0.090767
2562.6,0.090198
2563.86,0.090183
2565.13,0.089973
2566.4,0.090191
2567.67,0.09073
2568.95,0.09073
2570.22,0.090288
2571.5,0.090024
2572.77,0.089987
2574.05,0.090027
2575.33,0.089969
2576.61,0.089853
2577.89,0.089867
2579.17,0.090015
2580.46,0.089712
2581.74,0.089056
2583.03,0.089074
2584.31,0.08875
2585.6,0.088112
2586.89,0.088254
2588.19,0.088719
2589.48,0.088837
2590.77,0.088951
2592.07,0.089093
2593.36,0.089227
2594.66,0.088793
2595.96,0.087398
2597.26,0.086932
2598.56,0.087811
2599.87,0.087954
2601.17,0.087392
2602.48,0.087238
2603.78,0.087166
2605.09,0.086857
2606.4,0.086554
2607.71,0.086192
2609.03,0.086481
2610.34,0.086944
2611.66,0.086632
2612.97,0.085918
2614.29,0.085614
2615.61,0.085596
2616.93,0.085651
2618.25,0.085137
2619.57,0.084418
2620.9,0.084463
2622.22,0.084682
2623.55,0.084313
2624.88,0.083745
2626.21,0.083283
2627.54,0.083109
2628.87,0.083266
2630.21,0.083146
2631.54,0.082942
2632.88,0.082983
2634.21,0.082274
2635.55,0.081617
2636.89,0.081419
2638.24,0.081027
2639.58,0.080822
2640.92,0.080499
2642.27,0.079979
2643.62,0.07964
2644.97,0.079472
2646.32,0.079258
2647.67,0.079143
2649.02,0.078711
2650.38,0.078269
2651.73,0.07784
2653.09,0.077168
2654.45,0.076409
2655.81,0.076106
2657.17,0.076034
2658.53,0.075594
2659.89,0.074877
2661.26,0.074209
2662.63,0.073966
2664.0,0.073608
2665.36,0.072851
2666.74,0.072314
2668.11,0.071729
2669.48,0.071183
2670.86,0.070523
2672.23,0.069784
2673.61,0.069793
2674.99,0.069192
2676.37,0.068729
2677.76,0.068356
2679.14,0.067928
2680.52,0.067292
2681.91,0.066516
2683.3,0.066197
2684.69,0.06586
2686.08,0.065405
2687.47,0.064911
2688.87,0.06407
2690.26,0.063287
2691.66,0.062891
2693.06,0.061983
2694.46,0.060923
2695.86,0.060519
2697.26,0.060127
2698.66,0.059621
2700.07,0.058813
2701.48,0.057665
2702.89,0.057261
2704.3,0.057152
2705.71,0.056692
2707.12,0.055955
2708.53,0.055183
2709.95,0.05472
2711.37,0.054012
2712.79,0.05326
2714.21,0.052646
2715.63,0.051571
2717.05,0.05086
2718.48,0.050476
2719.9,0.049898
2721.33,0.048945
2722.76,0.048325
2724.19,0.047931
2725.62,0.046916
2727.06,0.04621
2728.49,0.045995
2729.93,0.045555
2731.37,0.045009
2732.81,0.04453
2734.25,0.044123
2735.69,0.043229
2737.14,0.042344
2738.58,0.042125
2740.03,0.041845
2741.48,0.041366
2742.93,0.041211
2744.38,0.040883
2745.83,0.04024
2747.29,0.039653
2748.75,0.039427
2750.2,0.039161
2751.66,0.038824
2753.13,0.038746
2754.59,0.038482
2756.05,0.037974
2757.52,0.037403
2758.99,0.037236
2760.46,0.037446
2761.93,0.037247
2763.4,0.03705
2764.87,0.036924
2766.35,0.036754
2767.82,0.036526
2769.3,0.036081
2770.78,0.03606
2772.26,0.03637
2773.75,0.036604
2775.23,0.036365
2776.72,0.036207
2778.21,0.036348
2779.7,0.036388
2781.19,0.036327
2782.68,0.036579
2784.18,0.036813
2785.67,0.036648
2787.17,0.036517
2788.67,0.036543
2790.17,0.03693
2791.67,0.037003
2793.18,0.03716
2794.68,0.037543
2796.19,0.03793
2797.7,0.037937
2799.21,0.037931
2800.72,0.03816
2802.24,0.038423
2803.75,0.03854
2805.27,0.03858
2806.79,0.038537
2808.31,0.038709
2809.83,0.038758
2811.35,0.039189
2812.88,0.039748
2814.41,0.039849
2815.93,0.040124
2817.46,0.040426
2819.0,0.040691
2820.53,0.040644
2822.07,0.040729
2823.6,0.04106
2825.14,0.041379
2826.68,0.041673
2828.22,0.041806
2829.77,0.041904
2831.31,0.041856
2832.86,0.041924
2834.41,0.042381
2835.96,0.042779
2837.51,0.043031
2839.07,0.043288
2840.62,0.043402
2842.18,0.043316
2843.74,0.043523
2845.3,0.043978
2846.86,0.044115
2848.43,0.043947
2849.99,0.044083
2851.56,0.044675
2853.13,0.04506
2854.7,0.045172
2856.27,0.045208
2857.85,0.045434
2859.42,0.045704
2861.0,0.045762
2862.58,0.04565
2864.16,0.045882
2865.75,0.046212
2867.33,0.046244
2868.92,0.046316
2870.51,0.046634
2872.1,0.046889
2873.69,0.047044
2875.28,0.046887
2876.88,0.047051
2878.48,0.047453
2880.07,0.047718
2881.68,0.047691
2883.28,0.047638
2884.88,0.04792
2886.49,0.048393
2888.1,0.048619
2889.71,0.048606
2891.32,0.048867
2892.93,0.049056
2894.55,0.049011
2896.16,0.04925
2897.78,0.049304
2899.4,0.049425
2901.03,0.049697
2902.65,0.049511
2904.28,0.049694
2905.91,0.050028
2907.54,0.05004
2909.17,0.050314
2910.8,0.050308
2912.44,0.050045
2914.07,0.050279
2915.71,0.050846
2917.35,0.050858
2918.99,0.050811
2920.64,0.051168
2922.29,0.051644
2923.93,0.051586
2925.58,0.051447
2927.24,0.051554
2928.89,0.051762
2930.55,0.05183
2932.2,0.051705
2933.86,0.051842
2935.52,0.052232
2937.19,0.052213
2938.85,0.052137
2940.52,0.052354
2942.19,0.052615
2943.86,0.05273
2945.53,0.052586
2947.21,0.052493
2948.88,0.05259
2950.56,0.052767
2952.24,0.052949
2953.92,0.053314
2955.61,0.053346
2957.29,0.053159
2958.98,0.053026
2960.67,0.053023
2962.36,0.052958
2964.06,0.052989
2965.75,0.053205
2967.45,0.053458
2969.15,0.053311
2970.85,0.053272
2972.55,0.05358
2974.26,0.053837
2975.97,0.053856
2977.68,0.053742
2979.39,0.053906
2981.1,0.053868
2982.82,0.05403
2984.53,0.054022
2986.25,0.053844
2987.97,0.053968
2989.7,0.054091
2991.42,0.054092
2993.15,0.054316
2994.88,0.054138
2996.61,0.054099
2998.34,0.054323
3000.08,0.054183
3001.82,0.053822
3003.55,0.053908
3005.3,0.054048
3007.04,0.054005
3008.78,0.054048
3010.53,0.054255
3012.28,0.054427
3014.03,0.054266
3015.79,0.054069
3017.54,0.054129
3019.3,0.054194
3021.06,0.054205
3022.82,0.054214
3024.58,0.054346
3026.35,0.054479
3028.12,0.054351
3029.89,0.054217
3031.66,0.05435
3033.43,0.054498
3035.21,0.054381
3036.99,0.054335
3038.77,0.054289
3040.55,0.054269
3042.33,0.054135
3044.12,0.05402
3045.91,0.054152
3047.7,0.054238
3049.49,0.054242
3051.29,0.054328
3053.08,0.054241
3054.88,0.05414
3056.68,0.05408
3058.49,0.054064
3060.29,0.054104
3062.1,0.054049
3063.91,0.053979
3065.72,0.054332
3067.54,0.054548
3069.35,0.054587
3071.17,0.054395
3072.99,0.054212
3074.81,0.054332
3076.64,0.054393
3078.47,0.05442
3080.29,0.054553
3082.13,0.054554
3083.96,0.054545
3085.79,0.054675
3087.63,0.054509
3089.47,0.054291
3091.31,0.05456
3093.16,0.054695
3095.01,0.054751
3096.85,0.054896
3098.71,0.054805
3100.56,0.054762
3102.41,0.054941
3104.27,0.054938
3106.13,0.054768
3107.99,0.054836
3109.86,0.055018
3111.73,0.05498
3113.59,0.054862
3115.47,0.05504
3117.34,0.055212
3119.21,0.055098
3121.09,0.054908
3122.97,0.054923
3124.86,0.055009
3126.74,0.055082
3128.63,0.055211
3130.52,0.055424
3132.41,0.055511
3134.3,0.05506
3136.2,0.054905
3138.1,0.055022
3140.0,0.054947
3141.9,0.055067
3143.81,0.055144
3145.71,0.055184
3147.62,0.055324
3149.54,0.05541
3151.45,0.055337
3153.37,0.05529
3155.29,0.055067
3157.21,0.054979
3159.13,0.055253
3161.06,0.055227
3162.99,0.055198
3164.92,0.055009
3166.85,0.055024
3168.79,0.055245
3170.72,0.055249
3172.67,0.055196
3174.61,0.055166
3176.55,0.055009
3178.5,0.055087
3180.45,0.055171
3182.4,0.055178
3184.36,0.055256
3186.32,0.055384
3188.27,0.055354
3190.24,0.055272
3192.2,0.05531
3194.17,0.055429
3196.14,0.055265
3198.11,0.055265
3200.08,0.055278
3202.06,0.055235
3204.04,0.055436
3206.02,0.055519
3208.0,0.055353
3209.99,0.055129
3211.98,0.055143
3213.97,0.055268
3215.96,0.05526
3217.96,0.05532
3219.96,0.055466
3221.96,0.055321
3223.96,0.055421
3225.97,0.055651
3227.98,0.055523
3229.99,0.055514
3232.0,0.055589
3234.02,0.055457
3236.04,0.055409
3238.06,0.055421
3240.08,0.055534
3242.11,0.05569
3244.14,0.055726
3246.17,0.055711
3248.2,0.055496
3250.24,0.055581
3252.28,0.055653
3254.32,0.055683
3256.37,0.055686
3258.41,0.055619
3260.46,0.055706
3262.51,0.05571
3264.57,0.055609
3266.63,0.055716
3268.69,0.055708
3270.75,0.05568
3272.81,0.055725
3274.88,0.055838
3276.95,0.055877
3279.02,0.055726
3281.1,0.055603
3283.18,0.055614
3285.26,0.055797
3287.34,0.056037
3289.43,0.056152
3291.51,0.05603
3293.61,0.05571
3295.7,0.055648
3297.8,0.056001
3299.9,0.056125
3302.0,0.055838
3304.1,0.055846
3306.21,0.056019
3308.32,0.056086
3310.43,0.056188
3312.55,0.056312
3314.66,0.056321
3316.79,0.056286
3318.91,0.056338
3321.03,0.05653
3323.16,0.056494
3325.29,0.056453
3327.43,0.056588
3329.57,0.056536
3331.71,0.056488
3333.85,0.056644
3335.99,0.05659
3338.14,0.056543
3340.29,0.056548
3342.45,0.056626
3344.6,0.056688
3346.76,0.056859
3348.92,0.056987
3351.09,0.05708
3353.26,0.057127
3355.43,0.05702
3357.6,0.057188
3359.78,0.057238
3361.96,0.057102
3364.14,0.0572
3366.32,0.057475
3368.51,0.057692
3370.7,0.057722
3372.89,0.05762
3375.09,0.057648
3377.29,0.057875
3379.49,0.057949
3381.69,0.057882
3383.9,0.057967
3386.11,0.058099
3388.32,0.058204
3390.54,0.058299
3392.76,0.058428
3394.98,0.058402
3397.21,0.058417
3399.43,0.058465
3401.66,0.058508
3403.9,0.058502
3406.13,0.058725
3408.37,0.059102
3410.61,0.059171
3412.86,0.05918
3415.11,0.059276
3417.36,0.059237
3419.61,0.059337
3421.87,0.059378
3424.13,0.059424
3426.39,0.059469
3428.66,0.059632
3430.93,0.059855
3433.2,0.059903
3435.48,0.059874
3437.76,0.059859
3440.04,0.059875
3442.32,0.059953
3444.61,0.059996
3446.9,0.060307
3449.19,0.060508
3451.49,0.060411
3453.79,0.060445
3456.09,0.060431
3458.4,0.060422
3460.7,0.060459
3463.02,0.060625
3465.33,0.06071
3467.65,0.06064
3469.97,0.060775
3472.29,0.061155
3474.62,0.061346
3476.95,0.061327
3479.29,0.061363
3481.62,0.061378
3483.96,0.061318
3486.3,0.061441
3488.65,0.061724
3491.0,0.061899
3493.35,0.06192
3495.71,0.061875
3498.07,0.061899
3500.43,0.062007
3502.79,0.062324
3505.16,0.062453
3507.53,0.062349
3509.91,0.062466
3512.29,0.062757
3514.67,0.06297
3517.05,0.062983
3519.44,0.062998
3521.83,0.063093
3524.23,0.063177
3526.62,0.063219
3529.02,0.063342
3531.43,0.063511
3533.83,0.063698
3536.24,0.063892
3538.66,0.064088
3541.08,0.0642
3543.5,0.064173
3545.92,0.064218
3548.35,0.064285
3550.78,0.064427
3553.21,0.064484
3555.65,0.064628
3558.09,0.064928
3560.53,0.065099
3562.98,0.065181
3565.43,0.065142
3567.88,0.065291
3570.34,0.065444
3572.8,0.065496
3575.27,0.06568
3577.73,0.065908
3580.2,0.065932
3582.68,0.065934
3585.16,0.066119
3587.64,0.06647
3590.12,0.066511
3592.61,0.066619
3595.1,0.066786
3597.6,0.066928
3600.09,0.067118
3602.6,0.067343
3605.1,0.067456
3607.61,0.067607
3610.12,0.067784
3612.64,0.06787
3615.16,0.067918
3617.68,0.068105
3620.21,0.068224
3622.74,0.068414
3625.27,0.06869
3627.81,0.068889
3630.35,0.068905
3632.89,0.069046
3635.44,0.069211
3637.99,0.069443
3640.54,0.069737
3643.1,0.069788
3645.66,0.069714
3648.23,0.069933
3650.8,0.070106
3653.37,0.0703
3655.95,0.070543
3658.53,0.070606
3661.11,0.070723
3663.7,0.071039
3666.29,0.071343
3668.89,0.071594
3671.48,0.071576
3674.09,0.071617
3676.69,0.071683
3679.3,0.071856
3681.91,0.072086
3684.53,0.072122
3687.15,0.072228
3689.78,0.072495
3692.4,0.072766
3695.04,0.072919
3697.67,0.073041
3700.31,0.073117
3702.95,0.073246
3705.6,0.073438
3708.25,0.073675
3710.91,0.073787
3713.56,0.073833
3716.23,0.073963
3718.89,0.074175
3721.56,0.074406
3724.23,0.074544
3726.91,0.074629
3729.59,0.074811
3732.28,0.075037
3734.97,0.075271
3737.66,0.075414
3740.36,0.075569
3743.06,0.075645
3745.76,0.075719
3748.47,0.075993
3751.18,0.076123
3753.9,0.076168
3756.62,0.076391
3759.34,0.076659
3762.07,0.076763
3764.8,0.076949
3767.54,0.077099
3770.28,0.07722
3773.02,0.077354
3775.77,0.077464
3778.52,0.077568
3781.28,0.077732
3784.04,0.077957
3786.8,0.078139
3789.57,0.078294
3792.34,0.078374
3795.12,0.0784
3797.9,0.07862
3800.69,0.078897
3803.47,0.079037
3806.27,0.079119
3809.06,0.079201
3811.86,0.079213
3814.67,0.079238
3817.48,0.079407
3820.29,0.079685
3823.11,0.079829
3825.93,0.079838
3828.76,0.07986
3831.59,0.079965
3834.42,0.080166
3837.26,0.08033
3840.1,0.080438
3842.95,0.080576
3845.8,0.08073
3848.65,0.080721
3851.51,0.080784
3854.38,0.080993
3857.24,0.081025
3860.12,0.081044
3862.99,0.081157
3865.87,0.081197
3868.76,0.081103
3871.65,0.081209
3874.54,0.081382
3877.44,0.08144
3880.34,0.081485
3883.25,0.081566
3886.16,0.081643
3889.07,0.081719
3891.99,0.081732
3894.92,0.081746
3897.85,0.081746
3900.78,0.081873
3903.72,0.082
3906.66,0.081857
3909.6,0.08183
3912.55,0.081873
3915.51,0.081945
3918.47,0.082037
3921.43,0.082087
3924.4,0.08217
3927.38,0.082132
3930.35,0.082032
3933.33,0.082054
3936.32,0.082052
3939.31,0.082016
3942.31,0.082024
3945.31,0.08198
3948.31,0.081852
3951.32,0.081681
3954.34,0.081588
3957.35,0.081559
3960.38,0.081475
3963.41,0.081315
3966.44,0.081179
3969.48,0.08121
3972.52,0.081178
3975.56,0.081083
3978.61,0.081043
3981.67,0.080958
3984.73,0.080886
3987.8,0.080808
3990.87,0.080731
3993.94,0.080605
3997.02,0.080384
4000.1,0.080242
4003.19,0.080163
4006.29,0.080134
4009.39,0.079912
4012.49,0.079687
4015.6,0.079489
4018.71,0.079327
4021.83,0.079288
4024.95,0.07916
4028.08,0.078864
4031.21,0.078654
4034.35,0.078656
4037.49,0.078574
4040.64,0.078355
4043.79,0.078165
4046.94,0.077883
4050.11,0.077586
4053.27,0.077385
4056.44,0.077165
4059.62,0.076968
4062.8,0.076877
4065.99,0.076696
4069.18,0.07642
4072.38,0.076146
4075.58,0.075941
4078.78,0.075702
4082.0,0.075509
4085.21,0.075329
4088.43,0.075057
4091.66,0.074803
4094.89,0.074434
4098.13,0.074059
4101.37,0.073857
4104.62,0.073679
4107.87,0.073506
4111.13,0.07331
4114.39,0.073029
4117.66,0.072645
4120.93,0.072334
4124.21,0.072264
4127.5,0.072117
4130.79,0.071766
4134.08,0.071462
4137.38,0.071238
4140.68,0.070985
4143.99,0.070631
4147.31,0.070375
4150.63,0.070237
4153.95,0.070047
4157.29,0.069744
4160.62,0.069389
4163.96,0.069109
4167.31,0.06899
4170.66,0.068777
4174.02,0.068511
4177.39,0.06829
4180.75,0.068073
4184.13,0.067808
4187.51,0.067573
4190.89,0.067435
4194.28,0.067204
4197.68,0.066934
4201.08,0.066659
4204.49,0.066492
4207.9,0.066335
4211.32,0.065942
4214.74,0.065543
4218.17,0.065292
4221.61,0.065052
4225.05,0.064734
4228.5,0.064442
4231.95,0.064205
4235.4,0.064069
4238.87,0.063923
4242.34,0.063604
4245.81,0.063347
4249.29,0.063227
4252.78,0.06318
4256.27,0.063265
4259.77,0.063355
4263.27,0.063233
4266.78,0.062879
4270.29,0.062576
4273.81,0.062452
4277.34,0.062306
4280.87,0.062107
4284.41,0.061908
4287.95,0.061808
4291.5,0.061723
4295.06,0.061632
4298.62,0.061566
4302.19,0.061563
4305.76,0.061586
4309.34,0.06141
4312.92,0.061266
4316.52,0.061298
4320.11,0.061282
4323.72,0.061192
4327.32,0.061101
4330.94,0.060982
4334.56,0.060916
4338.19,0.060891
4341.82,0.060783
4345.46,0.060713
4349.11,0.06064
4352.76,0.060483
4356.42,0.060385
4360.08,0.060329
4363.75,0.060192
4367.43,0.060206
4371.11,0.060217
4374.8,0.060057
4378.49,0.059959
4382.19,0.059887
4385.9,0.059855
4389.61,0.059773
4393.33,0.059594
4397.06,0.059467
4400.79,0.059433
4404.53,0.059358
4408.28,0.059248
4412.03,0.05914
4415.79,0.059004
4419.55,0.058927
4423.32,0.058925
4427.1,0.058897
4430.88,0.058795
4434.68,0.058695
4438.47,0.058524
4442.28,0.058446
4446.08,0.058385
4449.9,0.058325
4453.72,0.0583
4457.55,0.058258
4461.39,0.058225
4465.23,0.058196
4469.08,0.058064
4472.94,0.058044
4476.8,0.05806
4480.67,0.058009
4484.55,0.058006
4488.43,0.057976
4492.32,0.057829
4496.21,0.057814
4500.12,0.057771
4504.03,0.057781
4507.94,0.057785
4511.87,0.057726
4515.8,0.057647
4519.73,0.057688
4523.68,0.057657
4527.63,0.057555
4531.59,0.057602
4535.55,0.057742
4539.52,0.05763
4543.5,0.057505
4547.49,0.057375
4551.48,0.057378
4555.48,0.057479
4559.49,0.057439
4563.5,0.057368
4567.52,0.057247
4571.55,0.05713
4575.58,0.057217
4579.63,0.057263
4583.67,0.057224
4587.73,0.057235
4591.79,0.057189
4595.86,0.057099
4599.94,0.057108
4604.03,0.057148
4608.12,0.057163
4612.22,0.057155
4616.33,0.057148
4620.44,0.057129
4624.56,0.057138
4628.69,0.057098
4632.83,0.057021
4636.97,0.05697
4641.12,0.056976
4645.28,0.057035
4649.45,0.057123
4653.62,0.057118
4657.8,0.05712
4661.99,0.057182
4666.19,0.05726
4670.39,0.057326
4674.6,0.057364
4678.82,0.057352
4683.05,0.05739
4687.28,0.057476
4691.52,0.057448
4695.77,0.0575
4700.03,0.057652
4704.3,0.057697
4708.57,0.05773
4712.85,0.057799
4717.14,0.057831
4721.43,0.057936
4725.74,0.0581
4730.05,0.058219
4734.37,0.058364
4738.7,0.058495
4743.03,0.05862
4747.38,0.058701
4751.73,0.058723
4756.09,0.058886
4760.45,0.059005
4764.83,0.058979
4769.21,0.059139
4773.6,0.059379
4778.0,0.059452
4782.41,0.059528
4786.83,0.059675
4791.25,0.059742
4795.68,0.059879
4800.13,0.059996
4804.57,0.059987
4809.03,0.060065
4813.5,0.060191
4817.97,0.060252
4822.45,0.060373
4826.94,0.06043
4831.44,0.060499
4835.95,0.060583
4840.46,0.06058
4844.99,0.060658
4849.52,0.060791
4854.06,0.06091
4858.61,0.061011
4863.17,0.061122
4867.73,0.061161
4872.31,0.061193
4876.89,0.061214
4881.48,0.061209
4886.08,0.061296
4890.69,0.061403
4895.31,0.061468
4899.94,0.061481
4904.57,0.061558
4909.22,0.061726
4913.87,0.061726
4918.53,0.061682
4923.21,0.061753
4927.88,0.061787
4932.57,0.06179
4937.27,0.061844
4941.98,0.061944
4946.69,0.061976
4951.42,0.062048
4956.15,0.062117
4960.9,0.062008
4965.65,0.062045
4970.41,0.062153
4975.18,0.06222
4979.96,0.06236
4984.75,0.062379
4989.54,0.062309
4994.35,0.062335
4999.17,0.06239
5003.99,0.062413
5008.83,0.062414
5013.67,0.06248
5018.52,0.062573
5023.39,0.062618
5028.26,0.062593
5033.14,0.062615
5038.03,0.06269
5042.93,0.062733
5047.84,0.06277
5052.76,0.062785
5057.69,0.062721
5062.63,0.062773
5067.58,0.062865
5072.54,0.062918
5077.51,0.062884
5082.49,0.062796
5087.47,0.062764
5092.47,0.062763
5097.48,0.062782
5102.5,0.062828
5107.52,0.062854
5112.56,0.06282
5117.61,0.062822
5122.66,0.062822
5127.73,0.062863
5132.81,0.062773
5137.89,0.062648
5142.99,0.062669
5148.1,0.06273
5153.22,0.062629
5158.34,0.062564
5163.48,0.062491
5168.63,0.062448
5173.79,0.062323
5178.96,0.062244
5184.13,0.062206
5189.32,0.062147
5194.52,0.062029
5199.73,0.061975
5204.96,0.061957
5210.19,0.061869
5215.43,0.061692
5220.68,0.061639
5225.94,0.061637
5231.22,0.061522
5236.5,0.061322
5241.79,0.061163
5247.1,0.061059
5252.42,0.06097
5257.74,0.060869
5263.08,0.060761
5268.43,0.060667
5273.79,0.060606
5279.16,0.060497
5284.54,0.060312
5289.93,0.060162
5295.34,0.060013
5300.75,0.059807
5306.18,0.059639
5311.61,0.059516
5317.06,0.059427
5322.52,0.059335
5327.99,0.05923
5333.47,0.05899
5338.96,0.058765
5344.47,0.058637
5349.98,0.058512
5355.51,0.058311
5361.05,0.058155
5366.6,0.058066
5372.16,0.057954
5377.73,0.057818
5383.32,0.057641
5388.91,0.05741
5394.52,0.057241
5400.14,0.057081
5405.77,0.056879
5411.41,0.056622
5417.07,0.056431
5422.74,0.056205
5428.41,0.05594
5434.1,0.055925
5439.81,0.055913
5445.52,0.055708
5451.25,0.055375
5456.98,0.055138
5462.73,0.054992
5468.5,0.05478
5474.27,0.054544
5480.06,0.054339
5485.86,0.054183
5491.67,0.054011
5497.49,0.053848
5503.33,0.053643
5509.18,0.053421
5515.04,0.053207
5520.91,0.052993
5526.8,0.052742
5532.69,0.052493
5538.61,0.052251
5544.53,0.05205
5550.47,0.051811
5556.41,0.051423
5562.38,0.051074
5568.35,0.050851
5574.34,0.050701
5580.34,0.050422
5586.35,0.050111
5592.38,0.049881
5598.42,0.049644
5604.47,0.049391
5610.54,0.049079
5616.61,0.048754
5622.71,0.048511
5628.81,0.048243
5634.93,0.047889
5641.06,0.047455
5647.21,0.047006
5653.36,0.046762
5659.54,0.04648
5665.72,0.046174
5671.92,0.045905
5678.13,0.045483
5684.36,0.045088
5690.6,0.044819
5696.85,0.044441
5703.12,0.044075
5709.4,0.043706
5715.69,0.043212
5722.0,0.042828
5728.33,0.042559
5734.66,0.042191
5741.01,0.041747
5747.38,0.041292
5753.76,0.040814
5760.15,0.040451
5766.56,0.039995
5772.98,0.039413
5779.41,0.039042
5785.86,0.038669
5792.33,0.038245
5798.81,0.037829
5805.3,0.037374
5811.81,0.036918
5818.33,0.036505
5824.87,0.036013
5831.42,0.035461
5837.99,0.035058
5844.57,0.034689
5851.17,0.034261
5857.78,0.033873
5864.41,0.033503
5871.05,0.032946
5877.7,0.032434
5884.38,0.031975
5891.06,0.031629
5897.76,0.031347
5904.48,0.030858
5911.21,0.030538
5917.96,0.030343
5924.73,0.030075
5931.5,0.029867
5938.3,0.02957
5945.11,0.02932
5951.93,0.02934
5958.78,0.02942
5965.63,0.02952
5972.51,0.029596
5979.39,0.029778
5986.3,0.030179
5993.22,0.03051
6000.16,0.030927
6007.11,0.031619
6014.08,0.032275
6021.06,0.032859
6028.06,0.033753
6035.08,0.034749
6042.12,0.035662
6049.17,0.036386
6056.23,0.037139
6063.32,0.038273
6070.42,0.039333
6077.53,0.04021
6084.67,0.041094
6091.82,0.041931
6098.98,0.042748
6106.17,0.043478
6113.37,0.044055
6120.58,0.044451
6127.82,0.044891
6135.07,0.045396
6142.34,0.045746
6149.63,0.045935
6156.93,0.046068
6164.25,0.046068
6171.59,0.046102
6178.95,0.046144
6186.32,0.045981
6193.71,0.045718
6201.12,0.045623
6208.54,0.045582
6215.99,0.045473
6223.45,0.045292
6230.93,0.045054
6238.43,0.044906
6245.95,0.0448
6253.48,0.044626
6261.03,0.044458
6268.6,0.044269
6276.19,0.044066
6283.8,0.043897
6291.43,0.04375
6299.07,0.043637
6306.73,0.043471
6314.42,0.043277
6322.12,0.043127
6329.84,0.043115
6337.57,0.0431
6345.33,0.042833
6353.11,0.042507
6360.9,0.042423
6368.72,0.042391
6376.55,0.042261
6384.4,0.042224
6392.27,0.042175
6400.17,0.042012
6408.08,0.041806
6416.01,0.041478
6423.96,0.041281
6431.93,0.041393
6439.92,0.041399
6447.93,0.041327
6455.96,0.041288
6464.01,0.041281
6472.08,0.041178
6480.17,0.041051
6488.28,0.040967
6496.41,0.040732
6504.56,0.040494
6512.73,0.0406
6520.92,0.040712
6529.14,0.040618
6537.37,0.040543
6545.63,0.040446
6553.9,0.040378
6562.2,0.040273
6570.51,0.040221
6578.85,0.040074
6587.21,0.039954
6595.59,0.03988
6603.99,0.039817
6612.42,0.039745
6620.86,0.039662
6629.33,0.039619
6637.82,0.039372
6646.33,0.039069
6654.86,0.039103
6663.41,0.039147
6671.99,0.039079
6680.59,0.038958
6689.21,0.038677
6697.85,0.038588
6706.51,0.038575
6715.2,0.038383
6723.91,0.038226
6732.64,0.038034
6741.4,0.037894
6750.18,0.037856
6758.98,0.037697
6767.8,0.037555
6776.65,0.037382
6785.52,0.037131
6794.41,0.036959
6803.33,0.036895
6812.27,0.036832
6821.23,0.0367
6830.22,0.036553
6839.23,0.03634
6848.26,0.036188
6857.32,0.035969
6866.4,0.035662
6875.51,0.03551
6884.64,0.03555
6893.8,0.035506
6902.98,0.035336
6912.18,0.035121
6921.41,0.03488
6930.66,0.034759
6939.94,0.03458
6949.24,0.034297
6958.57,0.03408
6967.92,0.03389
6977.3,0.033709
6986.7,0.033455
6996.13,0.033231
7005.59,0.03304
7015.07,0.032819
7024.57,0.032508
7034.1,0.032255
7043.66,0.03207
7053.25,0.03185
7062.85,0.031673
7072.49,0.031541
7082.15,0.03142
7091.84,0.031135
7101.55,0.030789
7111.3,0.030561
7121.06,0.030296
7130.86,0.03001
7140.68,0.029767
7150.53,0.029554
7160.41,0.02927
7170.31,0.028935
7180.24,0.028622
7190.2,0.028393
7200.19,0.028125
7210.2,0.027778
7220.24,0.027465
7230.31,0.027157
7240.41,0.026902
7250.54,0.026612
7260.69,0.026309
7270.88,0.02601
7281.09,0.025623
7291.33,0.025236
7301.6,0.024905
7311.9,0.02467
7322.22,0.02432
7332.58,0.023897
7342.97,0.023416
7353.38,0.022987
7363.83,0.022654
7374.3,0.022329
7384.81,0.021869
7395.34,0.021493
7405.91,0.021171
7416.5,0.020735
7427.13,0.020318
7437.78,0.019892
7448.47,0.01943
7459.19,0.019054
7469.94,0.018637
7480.71,0.018167
7491.52,0.01773
7502.37,0.017275
7513.24,0.016729
7524.14,0.016228
7535.08,0.01572
7546.05,0.015192
7557.05,0.014706
7568.08,0.014246
7579.15,0.01374
7590.24,0.013258
7601.37,0.012783
7612.53,0.012343
7623.73,0.011799
7634.96,0.01124
7646.22,0.010688
7657.51,0.010099
7668.84,0.009578
7680.2,0.009158
7691.59,0.008538
7703.02,0.007881
7714.49,0.007272
7725.98,0.00674
7737.52,0.00639
7749.08,0.006011
7760.68,0.005636
7772.32,0.005413
7783.99,0.005281
7795.69,0.005347
7807.43,0.005676
7819.21,0.006287
7831.02,0.007202
7842.87,0.008479
7854.75,0.010235
7866.67,0.01251
7878.62,0.015433
7890.62,0.019146
7902.64,0.023561
7914.71,0.02873
7926.81,0.034641
7938.95,0.041102
7951.13,0.048015
7963.34,0.055116
7975.59,0.062226
7987.88,0.069401
8000.21,0.07634
8012.57,0.082793
8024.98,0.088704
8037.42,0.094333
8049.9,0.099648
8062.42,0.104495
8074.98,0.10911
8087.57,0.113368
8100.21,0.117447
8112.89,0.121278
8125.6,0.124881
8138.36,0.128088
8151.16,0.131168
8163.99,0.134219
8176.87,0.137161
8189.79,0.139849
8202.75,0.142344
8215.75,0.144817
8228.79,0.147243
8241.87,0.14952
8254.99,0.151883
8268.16,0.154229
8281.37,0.156492
8294.62,0.158799
8307.91,0.161158
8321.24,0.163393
8334.62,0.165607
8348.04,0.167673
8361.51,0.169724
8375.02,0.171636
8388.57,0.173358
8402.16,0.175014
8415.8,0.17658
8429.49,0.177844
8443.22,0.178856
8456.99,0.179734
8470.81,0.180555
8484.67,0.181217
8498.58,0.181759
8512.54,0.182002
8526.54,0.182064
8540.58,0.182008
8554.68,0.181863
8568.82,0.181524
8583.0,0.181039
8597.24,0.180467
8611.52,0.179954
8625.85,0.179341
8640.23,0.178549
8654.65,0.177574
8669.12,0.17661
8683.64,0.175479
8698.21,0.174405
8712.83,0.173373
8727.5,0.172119
8742.22,0.170699
8756.99,0.169375
8771.8,0.167931
8786.67,0.166448
8801.59,0.165075
8816.56,0.163691
8831.58,0.162285
8846.65,0.160854
8861.77,0.159366
8876.94,0.157882
8892.17,0.156555
8907.45,0.155342
8922.78,0.154008
8938.16,0.152694
8953.6,0.15139
8969.09,0.150212
8984.64,0.148987
9000.23,0.147727
9015.89,0.146429
9031.59,0.145049
9047.36,0.143678
9063.17,0.142288
9079.05,0.140768
9094.97,0.139182
9110.96,0.137678
9127.0,0.136092
9143.1,0.134486
9159.25,0.132827
9175.46,0.131201
9191.73,0.129722
9208.06,0.128083
9224.44,0.126279
9240.88,0.124422
9257.38,0.122903
9273.94,0.121354
9290.56,0.119668
9307.24,0.117975
9323.98,0.116381
9340.78,0.114764
9357.64,0.11306
9374.57,0.111445
9391.55,0.109634
9408.59,0.107842
9425.7,0.106284
9442.87,0.104768
9460.1,0.103119
9477.4,0.101549
9494.75,0.100097
9512.17,0.098803
9529.66,0.097412
9547.21,0.096013
9564.83,0.094671
9582.5,0.093445
9600.25,0.092371
9618.06,0.091304
9635.94,0.090118
9653.88,0.089125
9671.89,0.088382
9689.97,0.087625
9708.12,0.086965
9726.33,0.086455
9744.62,0.085791
9762.97,0.085148
9781.39,0.084803
9799.88,0.084504
9818.44,0.084109
9837.07,0.083613
9855.77,0.083275
9874.54,0.083115
9893.39,0.082811
9912.3,0.082448
9931.29,0.082143
9950.36,0.081745
9969.49,0.081405
9988.7,0.081184
10007.98,0.080801
10027.34,0.080361
10046.77,0.079951
10066.28,0.079581
10085.87,0.079205
10105.53,0.078745
10125.26,0.078329
10145.08,0.078032
10164.97,0.077654
10184.94,0.076908
10204.99,0.076281
10225.12,0.075848
10245.33,0.075398
10265.61,0.074964
10285.98,0.074592
10306.43,0.074115
10326.96,0.073668
10347.57,0.073305
10368.27,0.072929
10389.05,0.07246
10409.91,0.071802
10430.86,0.071341
10451.88,0.071019
10473.0,0.070627
10494.2,0.070104
10515.49,0.069612
10536.86,0.069105
10558.32,0.068537
10579.87,0.068122
10601.5,0.067688
10623.23,0.067243
10645.04,0.066846
10666.94,0.06637
10688.94,0.066032
10711.02,0.065569
10733.2,0.06506
10755.47,0.064575
10777.83,0.064175
10800.28,0.063767
10822.83,0.063301
10845.47,0.062927
10868.21,0.062489
10891.04,0.061938
10913.97,0.061402
10936.99,0.061068
10960.12,0.060759
10983.34,0.060474
11006.66,0.060103
11030.07,0.059603
11053.59,0.059297
11077.21,0.059083
11100.93,0.058711
11124.75,0.058177
11148.68,0.057883
11172.71,0.057553
11196.84,0.057304
11221.07,0.057065
11245.41,0.056643
11269.86,0.056373
11294.41,0.056044
11319.07,0.055638
11343.84,0.055351
11368.72,0.055127
11393.7,0.054874
11418.8,0.054596
11444.01,0.054273
11469.33,0.053926
11494.76,0.053612
11520.3,0.053317
11545.96,0.053035
11571.73,0.052941
11597.62,0.052611
11623.62,0.052212
11649.74,0.051983
11675.98,0.05184
11702.34,0.051718
11728.81,0.051532
11755.41,0.051297
11782.13,0.051042
11808.96,0.050771
11835.92,0.050608
11863.01,0.050447
11890.22,0.050179
11917.55,0.050018
11945.01,0.049918
11972.6,0.049637
12000.31,0.049305
12028.16,0.049105
12056.13,0.04878
12084.23,0.048634
12112.46,0.048444
12140.83,0.048275
12169.33,0.048145
12197.96,0.047919
12226.73,0.047624
12255.64,0.047485
12284.68,0.047394
12313.86,0.047168
12343.18,0.046709
12372.64,0.046572
12402.24,0.046465
12431.98,0.046278
12461.86,0.046154
12491.89,0.046073
12522.07,0.045729
12552.38,0.045538
12582.85,0.045632
12613.47,0.04565
12644.23,0.045627
12675.15,0.045539
12706.21,0.045574
12737.43,0.045386
12768.81,0.044919
12800.33,0.044593
12832.02,0.044698
12863.86,0.044731
12895.86,0.04465
12928.02,0.044675
12960.34,0.044688
12992.82,0.044589
13025.46,0.04467
13058.27,0.044664
13091.25,0.044631
13124.39,0.044808
13157.7,0.044842
13191.18,0.044937
13224.83,0.045261
13258.66,0.045374
13292.65,0.045151
13326.83,0.045043
13361.17,0.045085
13395.7,0.045015
13430.4,0.045114
13465.29,0.045127
13500.35,0.045183
13535.6,0.045352
13571.03,0.045395
13606.65,0.045515
13642.46,0.045553
13678.46,0.045799
13714.64,0.046078
13751.02,0.046231
13787.59,0.046416
13824.36,0.046591
13861.32,0.046876
13898.49,0.047077
13935.85,0.047201
13973.41,0.047547
14011.17,0.047853
14049.15,0.047795
14087.32,0.047709
14125.71,0.048232
14164.3,0.048811
14203.11,0.049328
14242.13,0.049774
14281.36,0.050201
14320.81,0.050566
14360.49,0.05119
14400.38,0.052101
14440.49,0.053001
14480.82,0.053813
14521.39,0.054755
14562.18,0.056118
14603.2,0.057485
14644.45,0.058723
14685.93,0.060143
14727.66,0.061833
14769.62,0.063682
14811.81,0.065569
14854.25,0.067364
14896.94,0.069033
14939.87,0.070676
14983.05,0.072386
15026.48,0.074434
15070.16,0.076629
15114.1,0.078462
15158.29,0.080233
15202.74,0.081989
15247.46,0.083827
15292.43,0.085429
15337.68,0.086762
15383.19,0.088267
15428.97,0.089872
15475.03,0.09152
15521.36,0.093192
15567.97,0.094664
15614.87,0.096108
15662.04,0.097693
15709.5,0.099114
15757.25,0.100578
15805.29,0.102382
15853.62,0.104031
15902.26,0.105499
15951.19,0.106959
16000.42,0.108381
16049.95,0.109789
16099.8,0.111162
16149.95,0.112899
16200.42,0.114687
16251.21,0.116106
16302.31,0.117319
16353.74,0.118399
16405.49,0.11887
16457.57,0.118662
16509.98,0.118418
16562.73,0.117795
16615.82,0.11705
16669.24,0.116018
16723.02,0.11459
16777.14,0.112944
16831.61,0.111227
16886.43,0.10936
16941.62,0.108125
16997.16,0.107041
17053.08,0.105433
17109.36,0.104232
17166.01,0.103365
17223.04,0.10231
17280.45,0.101478
17338.24,0.101038
17396.43,0.100811
17455.0,0.100466
17513.97,0.100045
17573.34,0.09953
17633.11,0.09933
17693.29,0.098908
17753.89,0.098247
17814.9,0.097909
17876.33,0.097497
17938.18,0.097146
18000.47,0.096787
18063.19,0.096454
18126.35,0.096505
18189.95,0.096817
18254.0,0.096759
18318.5,0.096443
18383.46,0.096288
18448.88,0.09573
18514.77,0.094598
18581.13,0.093886
18647.97,0.094013
18715.29,0.094136
18783.1,0.093935
18851.4,0.093631
18920.2,0.093164
18989.51,0.09249
19059.32,0.091954
19129.65,0.093348
19200.5,0.096083
19271.88,0.092893
19343.79,0.090342
19416.24,0.090635
19489.23,0.090618
19562.77,0.089867
19636.88,0.08977
19711.54,0.09016
19786.78,0.090149
19862.59,0.090502
19938.98,0.090869
20015.96,0.090828
20093.55,0.09051
20171.73,0.090521
20250.53,0.090916
20329.94,0.091517
20409.98,0.092111
20490.65,0.092037
20571.96,0.092035
20653.92,0.091529
20736.54,0.090508
20819.82,0.090563
20903.77,0.090873
20988.4,0.090765
21073.72,0.090784
21159.73,0.090166
21246.46,0.088359
21333.89,0.088255
21422.04,0.089458
21510.93,0.089631
21600.56,0.089354
21690.94,0.088661
21782.08,0.088103
21873.99,0.088512
21966.67,0.090264
22060.15,0.090518
22154.42,0.08963
22249.51,0.089419
22345.41,0.089105
22442.14,0.088882
22539.72,0.089419
22638.14,0.089507
22737.43,0.089355
22837.6,0.0891
22938.65,0.089496
23040.6,0.089795
23143.46,0.089638
23247.24,0.089505
23351.96,0.089359
23457.63,0.090183
23564.25,0.090941
23671.85,0.090395
23780.44,0.090527
23890.02,0.090872
24000.63,0.090663
24112.26,0.091125
24224.93,0.092083
24338.66,0.092851
24453.47,0.093148
24569.36,0.092821
24686.36,0.093556
24804.47,0.093027
24923.73,0.094982
25044.13,0.097849
25165.71,0.099433
25288.46,0.10004
25412.43,0.099702
25537.61,0.09905
25664.04,0.099419
25791.72,0.105495
25920.68,0.111262
