Database of Origin,University of Winnipeg Spectrophotometer Facility
Sample Description,RELAB + Nicolet spectral data. See Master Chromites in HOSERLAB sample database for additional info
Date Added,2016-11-30 00:50:18.128578

Data ID,RLA_CHR_07          
Sample ID,CHR107
Mineral Name,Chromite
Grain Size,<45
Viewing Geometry,"30/0,30"
Resolution,1.2-129
Formula,FeCr2O4
Material Class,Oxide

Wavelength
305.0,0.037612
310.0,0.038661
315.0,0.038462
320.0,0.039152
325.0,0.039451
330.0,0.039697
335.0,0.040068
340.0,0.040583
345.0,0.040986
350.0,0.040791
355.0,0.041373
360.0,0.041818
365.0,0.042475
370.0,0.042797
375.0,0.043095
380.0,0.043283
385.0,0.043917
390.0,0.044324
395.0,0.044578
400.0,0.04544
405.0,0.046401
410.0,0.046262
415.0,0.04675
420.0,0.047432
425.0,0.048603
430.0,0.049557
435.0,0.050985
440.0,0.05196
445.0,0.05312
450.0,0.054369
455.0,0.055361
460.0,0.056494
465.0,0.057085
470.0,0.05815
475.0,0.059037
480.0,0.05967
485.0,0.060735
490.0,0.061624
495.0,0.06303
500.0,0.064376
505.0,0.06638
510.0,0.068231
515.0,0.070462
520.0,0.072806
525.0,0.075501
530.0,0.078423
535.0,0.080939
540.0,0.08346
545.0,0.085142
550.0,0.086435
555.0,0.087151
560.0,0.087599
565.0,0.088126
570.0,0.088678
575.0,0.089153
580.0,0.089929
585.0,0.090918
590.0,0.092119
595.0,0.093535
600.0,0.095301
605.0,0.097376
610.0,0.10066
615.0,0.103889
620.0,0.107977
625.0,0.112149
630.0,0.116031
635.0,0.119292
640.0,0.121769
645.0,0.123133
650.0,0.123089
655.0,0.1222
660.0,0.121455
665.0,0.121736
670.0,0.122877
675.0,0.123703
680.0,0.124911
685.0,0.125637
690.0,0.126348
695.0,0.127348
700.0,0.128664
705.0,0.130736
710.0,0.13286
715.0,0.134993
720.0,0.136996
725.0,0.139153
730.0,0.141483
735.0,0.143701
740.0,0.14566
745.0,0.147372
750.0,0.14884
755.0,0.150736
760.0,0.151762
765.0,0.153279
770.0,0.154174
775.0,0.155499
780.0,0.156933
785.0,0.158127
790.0,0.159167
795.0,0.160558
800.0,0.161002
805.0,0.162853
810.0,0.164422
815.0,0.165004
820.0,0.166203
825.0,0.166931
830.0,0.168099
835.0,0.168642
840.0,0.169111
845.0,0.169926
850.0,0.170906
855.0,0.170885
860.0,0.171114
865.0,0.172079
870.0,0.172524
875.0,0.172871
880.0,0.173202
885.0,0.172342
890.0,0.172951
895.0,0.172864
900.0,0.173006
905.0,0.173552
910.0,0.17354
915.0,0.174131
920.0,0.174744
925.0,0.174601
930.0,0.17556
935.0,0.176378
940.0,0.177505
945.0,0.178525
950.0,0.179955
955.0,0.181033
960.0,0.183303
965.0,0.184701
970.0,0.186428
975.0,0.18869
980.0,0.190329
985.0,0.192119
990.0,0.19442
995.0,0.196379
1000.0,0.198719
1005.0,0.200556
1010.0,0.203054
1015.0,0.205493
1020.0,0.207586
1025.0,0.209667
1030.0,0.211857
1035.0,0.214112
1040.0,0.216286
1045.0,0.21795
1050.0,0.219323
1055.0,0.221015
1060.0,0.223003
1065.0,0.224988
1070.0,0.226295
1075.0,0.228022
1080.0,0.229494
1085.0,0.231048
1090.0,0.231874
1095.0,0.233155
1100.0,0.233836
1105.0,0.234487
1110.0,0.23559
1115.0,0.23573
1120.0,0.236752
1125.0,0.237183
1130.0,0.237173
1135.0,0.236812
1140.0,0.237987
1145.0,0.237478
1150.0,0.237207
1155.0,0.238506
1160.0,0.237134
1165.0,0.23788
1170.0,0.237893
1175.0,0.237651
1180.0,0.2376
1185.0,0.237718
1190.0,0.238981
1195.0,0.239458
1200.0,0.239048
1205.0,0.239029
1210.0,0.240163
1215.0,0.23891
1220.0,0.23952
1225.0,0.2407
1230.0,0.241188
1235.0,0.241857
1240.0,0.242181
1245.0,0.242345
1250.0,0.243172
1255.0,0.243988
1260.0,0.244083
1265.0,0.244558
1270.0,0.245319
1275.0,0.246184
1280.0,0.246627
1285.0,0.247742
1290.0,0.250191
1295.0,0.249088
1300.0,0.249572
1305.0,0.250854
1310.0,0.252702
1315.0,0.253667
1320.0,0.255297
1325.0,0.256608
1330.0,0.257956
1335.0,0.259225
1340.0,0.261051
1345.0,0.263298
1350.0,0.264126
1355.0,0.266173
1360.0,0.268629
1365.0,0.268098
1370.0,0.270043
1375.0,0.271813
1380.0,0.274552
1385.0,0.273516
1390.0,0.275041
1395.0,0.27769
1400.0,0.280487
1405.0,0.281327
1410.0,0.282728
1415.0,0.28395
1420.0,0.285187
1425.0,0.286582
1430.0,0.286831
1435.0,0.288626
1440.0,0.288871
1445.0,0.290048
1450.0,0.289602
1455.0,0.290409
1460.0,0.290204
1465.0,0.289928
1470.0,0.290492
1475.0,0.289376
1480.0,0.289493
1485.0,0.286531
1490.0,0.286152
1495.0,0.286292
1500.0,0.284602
1505.0,0.282747
1510.0,0.281188
1515.0,0.279614
1520.0,0.276647
1525.0,0.27395
1530.0,0.271472
1535.0,0.268897
1540.0,0.26751
1545.0,0.264
1550.0,0.260479
1555.0,0.257442
1560.0,0.254832
1565.0,0.251832
1570.0,0.24808
1575.0,0.245309
1580.0,0.241531
1585.0,0.239085
1590.0,0.234913
1595.0,0.232218
1600.0,0.228266
1605.0,0.224706
1610.0,0.221164
1615.0,0.218063
1620.0,0.214289
1625.0,0.210392
1630.0,0.206177
1635.0,0.202825
1640.0,0.199508
1645.0,0.196652
1650.0,0.192531
1655.0,0.189763
1660.0,0.184447
1665.0,0.180865
1670.0,0.177744
1675.0,0.174568
1680.0,0.171679
1685.0,0.167991
1690.0,0.164864
1695.0,0.161816
1700.0,0.158951
1705.0,0.155739
1710.0,0.15225
1715.0,0.149578
1720.0,0.146468
1725.0,0.143878
1730.0,0.141085
1735.0,0.138513
1740.0,0.135671
1745.0,0.133073
1750.0,0.130714
1755.0,0.128011
1760.0,0.125586
1765.0,0.123467
1770.0,0.121313
1775.0,0.118924
1780.0,0.116648
1785.0,0.114634
1790.0,0.112153
1795.0,0.110318
1800.0,0.108476
1805.0,0.106534
1810.0,0.104456
1815.0,0.102855
1820.0,0.10073
1825.0,0.099593
1830.0,0.097637
1835.0,0.095552
1840.0,0.09482
1845.0,0.093186
1850.0,0.091847
1855.0,0.090204
1860.0,0.089204
1865.0,0.087354
1870.0,0.085632
1875.0,0.08513
1880.0,0.084305
1885.0,0.082076
1890.0,0.080743
1895.0,0.079907
1900.0,0.077437
1905.0,0.077314
1910.0,0.076406
1915.0,0.075095
1920.0,0.074014
1925.0,0.073727
1930.0,0.07239
1935.0,0.071303
1940.0,0.070721
1945.0,0.0698
1950.0,0.069017
1955.0,0.068275
1960.0,0.067391
1965.0,0.066739
1970.0,0.066248
1975.0,0.06548
1980.0,0.064875
1985.0,0.064597
1990.0,0.063815
1995.0,0.06328
2000.0,0.062678
2005.0,0.062362
2010.0,0.061795
2015.0,0.061354
2020.0,0.060764
2025.0,0.060474
2030.0,0.060102
2035.0,0.059889
2040.0,0.059498
2045.0,0.059286
2050.0,0.059025
2055.0,0.058671
2060.0,0.058232
2065.0,0.058008
2070.0,0.057914
2075.0,0.057735
2080.0,0.057508
2085.0,0.0573
2090.0,0.056888
2095.0,0.056718
2100.0,0.05707
2105.0,0.056845
2110.0,0.056598
2115.0,0.056533
2120.0,0.056467
2125.0,0.056276
2130.0,0.055913
2135.0,0.055787
2140.0,0.055734
2145.0,0.055789
2150.0,0.055544
2155.0,0.055578
2160.0,0.055359
2165.0,0.055425
2170.0,0.055193
2175.0,0.055248
2180.0,0.055271
2185.0,0.055134
2190.0,0.054898
2195.0,0.054814
2200.0,0.055028
2205.0,0.05512
2210.0,0.055122
2215.0,0.055029
2220.0,0.054863
2225.0,0.055012
2230.0,0.055127
2235.0,0.054941
2240.0,0.054921
2245.0,0.054987
2250.0,0.055132
2255.0,0.055034
2260.0,0.055255
2265.0,0.055125
2270.0,0.05521
2275.0,0.05527
2280.0,0.055497
2285.0,0.055393
2290.0,0.055337
2295.0,0.055298
2300.0,0.055492
2305.0,0.055429
2310.0,0.05541
2315.0,0.055242
2320.0,0.055225
2325.0,0.055421
2330.0,0.055339
2335.0,0.055583
2340.0,0.055411
2345.0,0.055741
2350.0,0.055573
2355.0,0.05564
2360.0,0.055736
2365.0,0.055884
2370.0,0.055795
2375.0,0.055882
2380.0,0.056048
2385.0,0.056068
2390.0,0.056208
2395.0,0.056481
2400.0,0.056557
2405.0,0.056618
2410.0,0.056843
2415.0,0.056831
2420.0,0.057199
2425.0,0.057506
2430.0,0.057632
2435.0,0.057602
2440.0,0.057949
2445.0,0.057917
2450.0,0.058167
2455.0,0.058223
2460.0,0.058335
2465.0,0.058576
2470.0,0.058535
2475.0,0.059005
2480.0,0.05894
2485.0,0.059011
2490.0,0.059402
2495.0,0.059428
2500.0,0.059509
2502.0,0.059623
2503.2,0.059607
2504.41,0.059623
2505.62,0.059751
2506.83,0.059856
2508.05,0.059719
2509.26,0.059647
2510.48,0.05945
2511.69,0.059662
2512.91,0.059764
2514.13,0.059738
2515.35,0.059665
2516.57,0.059823
2517.79,0.060173
2519.02,0.060192
2520.24,0.060072
2521.47,0.060255
2522.69,0.060297
2523.92,0.060215
2525.15,0.060074
2526.38,0.060181
2527.61,0.060213
2528.85,0.060067
2530.08,0.060072
2531.32,0.06018
2532.55,0.060068
2533.79,0.060137
2535.03,0.060279
2536.27,0.060372
2537.51,0.060411
2538.75,0.060284
2540.0,0.060231
2541.24,0.06019
2542.49,0.060352
2543.74,0.060614
2544.99,0.060688
2546.24,0.060693
2547.49,0.060558
2548.74,0.060628
2549.99,0.060544
2551.25,0.060536
2552.5,0.060681
2553.76,0.06078
2555.02,0.060925
2556.28,0.060957
2557.54,0.060914
2558.8,0.061055
2560.07,0.060878
2561.33,0.060667
2562.6,0.060683
2563.86,0.060958
2565.13,0.060949
2566.4,0.060957
2567.67,0.060887
2568.95,0.060789
2570.22,0.060917
2571.5,0.061079
2572.77,0.061319
2574.05,0.061435
2575.33,0.061396
2576.61,0.061291
2577.89,0.061244
2579.17,0.061346
2580.46,0.061274
2581.74,0.061317
2583.03,0.061453
2584.31,0.061283
2585.6,0.061128
2586.89,0.061327
2588.19,0.061236
2589.48,0.061411
2590.77,0.061639
2592.07,0.061633
2593.36,0.061516
2594.66,0.060928
2595.96,0.060343
2597.26,0.061298
2598.56,0.061944
2599.87,0.061874
2601.17,0.061506
2602.48,0.06164
2603.78,0.061829
2605.09,0.061865
2606.4,0.061817
2607.71,0.062028
2609.03,0.062078
2610.34,0.061862
2611.66,0.062018
2612.97,0.061992
2614.29,0.061605
2615.61,0.061624
2616.93,0.061572
2618.25,0.061635
2619.57,0.061992
2620.9,0.061931
2622.22,0.061884
2623.55,0.062155
2624.88,0.062134
2626.21,0.061995
2627.54,0.06185
2628.87,0.062029
2630.21,0.062015
2631.54,0.061753
2632.88,0.062141
2634.21,0.062408
2635.55,0.062242
2636.89,0.06233
2638.24,0.062369
2639.58,0.062318
2640.92,0.062333
2642.27,0.062219
2643.62,0.062209
2644.97,0.062248
2646.32,0.062246
2647.67,0.062425
2649.02,0.062467
2650.38,0.062492
2651.73,0.062363
2653.09,0.062127
2654.45,0.062115
2655.81,0.062203
2657.17,0.062064
2658.53,0.062137
2659.89,0.062035
2661.26,0.062123
2662.63,0.062209
2664.0,0.062236
2665.36,0.061809
2666.74,0.061589
2668.11,0.061895
2669.48,0.062041
2670.86,0.061476
2672.23,0.061457
2673.61,0.0622
2674.99,0.062391
2676.37,0.062144
2677.76,0.061574
2679.14,0.06156
2680.52,0.061888
2681.91,0.062105
2683.3,0.061763
2684.69,0.061413
2686.08,0.061381
2687.47,0.061129
2688.87,0.060962
2690.26,0.061063
2691.66,0.060927
2693.06,0.060579
2694.46,0.060076
2695.86,0.059818
2697.26,0.059471
2698.66,0.058639
2700.07,0.057248
2701.48,0.055109
2702.89,0.05319
2704.3,0.052294
2705.71,0.051595
2707.12,0.050146
2708.53,0.047948
2709.95,0.046094
2711.37,0.04525
2712.79,0.045097
2714.21,0.045044
2715.63,0.04506
2717.05,0.045397
2718.48,0.04616
2719.9,0.047338
2721.33,0.048494
2722.76,0.050034
2724.19,0.051335
2725.62,0.051917
2727.06,0.052531
2728.49,0.053274
2729.93,0.053807
2731.37,0.05398
2732.81,0.054151
2734.25,0.054209
2735.69,0.05391
2737.14,0.053918
2738.58,0.053867
2740.03,0.053523
2741.48,0.053388
2742.93,0.053455
2744.38,0.053765
2745.83,0.053997
2747.29,0.054244
2748.75,0.054656
2750.2,0.054955
2751.66,0.055262
2753.13,0.055598
2754.59,0.055942
2756.05,0.055718
2757.52,0.056176
2758.99,0.057064
2760.46,0.057307
2761.93,0.057329
2763.4,0.057208
2764.87,0.057177
2766.35,0.057481
2767.82,0.057498
2769.3,0.057537
2770.78,0.057401
2772.26,0.057419
2773.75,0.057954
2775.23,0.058047
2776.72,0.057952
2778.21,0.057828
2779.7,0.05795
2781.19,0.057843
2782.68,0.057707
2784.18,0.057793
2785.67,0.057867
2787.17,0.057778
2788.67,0.057726
2790.17,0.058013
2791.67,0.057971
2793.18,0.057779
2794.68,0.057621
2796.19,0.057476
2797.7,0.05744
2799.21,0.057348
2800.72,0.057269
2802.24,0.057082
2803.75,0.05678
2805.27,0.056599
2806.79,0.056662
2808.31,0.05678
2809.83,0.057006
2811.35,0.057082
2812.88,0.057204
2814.41,0.057285
2815.93,0.057318
2817.46,0.057451
2819.0,0.05745
2820.53,0.057821
2822.07,0.058019
2823.6,0.057943
2825.14,0.05789
2826.68,0.057863
2828.22,0.057988
2829.77,0.058112
2831.31,0.058145
2832.86,0.058203
2834.41,0.058348
2835.96,0.058352
2837.51,0.058462
2839.07,0.058708
2840.62,0.058634
2842.18,0.058603
2843.74,0.058598
2845.3,0.058597
2846.86,0.058899
2848.43,0.058949
2849.99,0.05877
2851.56,0.05874
2853.13,0.0587
2854.7,0.05898
2856.27,0.05934
2857.85,0.059225
2859.42,0.059202
2861.0,0.05919
2862.58,0.059188
2864.16,0.059012
2865.75,0.058872
2867.33,0.058969
2868.92,0.059074
2870.51,0.059163
2872.1,0.059122
2873.69,0.059383
2875.28,0.059738
2876.88,0.059473
2878.48,0.059179
2880.07,0.059078
2881.68,0.059205
2883.28,0.059607
2884.88,0.059894
2886.49,0.059716
2888.1,0.059464
2889.71,0.059426
2891.32,0.059412
2892.93,0.059321
2894.55,0.059337
2896.16,0.05924
2897.78,0.059151
2899.4,0.059231
2901.03,0.059273
2902.65,0.059263
2904.28,0.059283
2905.91,0.059326
2907.54,0.059356
2909.17,0.059496
2910.8,0.059843
2912.44,0.060046
2914.07,0.059793
2915.71,0.059655
2917.35,0.059586
2918.99,0.059303
2920.64,0.059379
2922.29,0.059467
2923.93,0.059483
2925.58,0.059321
2927.24,0.059299
2928.89,0.059375
2930.55,0.059647
2932.2,0.059779
2933.86,0.05965
2935.52,0.059607
2937.19,0.059528
2938.85,0.059575
2940.52,0.059901
2942.19,0.060156
2943.86,0.059779
2945.53,0.059426
2947.21,0.059517
2948.88,0.05999
2950.56,0.060172
2952.24,0.059592
2953.92,0.059313
2955.61,0.059407
2957.29,0.059398
2958.98,0.059484
2960.67,0.059419
2962.36,0.059382
2964.06,0.059426
2965.75,0.059431
2967.45,0.059705
2969.15,0.060147
2970.85,0.06012
2972.55,0.059744
2974.26,0.059591
2975.97,0.059694
2977.68,0.059608
2979.39,0.059388
2981.1,0.059327
2982.82,0.059471
2984.53,0.059828
2986.25,0.060023
2987.97,0.059719
2989.7,0.059611
2991.42,0.059677
2993.15,0.059868
2994.88,0.059997
2996.61,0.060167
2998.34,0.05991
3000.08,0.059635
3001.82,0.0597
3003.55,0.059694
3005.3,0.059549
3007.04,0.059756
3008.78,0.059862
3010.53,0.059638
3012.28,0.059506
3014.03,0.059706
3015.79,0.05984
3017.54,0.059772
3019.3,0.059871
3021.06,0.05999
3022.82,0.06017
3024.58,0.060478
3026.35,0.060629
3028.12,0.060419
3029.89,0.060067
3031.66,0.059907
3033.43,0.059999
3035.21,0.060241
3036.99,0.060419
3038.77,0.060477
3040.55,0.06034
3042.33,0.060152
3044.12,0.060068
3045.91,0.060111
3047.7,0.060159
3049.49,0.060153
3051.29,0.060152
3053.08,0.060223
3054.88,0.060365
3056.68,0.060498
3058.49,0.060805
3060.29,0.060716
3062.1,0.060427
3063.91,0.060314
3065.72,0.060301
3067.54,0.060284
3069.35,0.060316
3071.17,0.060495
3072.99,0.060542
3074.81,0.060444
3076.64,0.060373
3078.47,0.060451
3080.29,0.060643
3082.13,0.060814
3083.96,0.060669
3085.79,0.060529
3087.63,0.060504
3089.47,0.060573
3091.31,0.060616
3093.16,0.060899
3095.01,0.06104
3096.85,0.060884
3098.71,0.060743
3100.56,0.06078
3102.41,0.060773
3104.27,0.060806
3106.13,0.060966
3107.99,0.061032
3109.86,0.060877
3111.73,0.060956
3113.59,0.061037
3115.47,0.061042
3117.34,0.061023
3119.21,0.06101
3121.09,0.061084
3122.97,0.061178
3124.86,0.061177
3126.74,0.061304
3128.63,0.061305
3130.52,0.061213
3132.41,0.061193
3134.3,0.061304
3136.2,0.061406
3138.1,0.061372
3140.0,0.061361
3141.9,0.061536
3143.81,0.061554
3145.71,0.061557
3147.62,0.061705
3149.54,0.061873
3151.45,0.061954
3153.37,0.061988
3155.29,0.061901
3157.21,0.061909
3159.13,0.061923
3161.06,0.061923
3162.99,0.062062
3164.92,0.062148
3166.85,0.062263
3168.79,0.062305
3170.72,0.062358
3172.67,0.062665
3174.61,0.062865
3176.55,0.062675
3178.5,0.062535
3180.45,0.0626
3182.4,0.062761
3184.36,0.062951
3186.32,0.063164
3188.27,0.063215
3190.24,0.063132
3192.2,0.063196
3194.17,0.063174
3196.14,0.063323
3198.11,0.063443
3200.08,0.063424
3202.06,0.063446
3204.04,0.063679
3206.02,0.064107
3208.0,0.064379
3209.99,0.06455
3211.98,0.064411
3213.97,0.064054
3215.96,0.064191
3217.96,0.064459
3219.96,0.064216
3221.96,0.064082
3223.96,0.064204
3225.97,0.064416
3227.98,0.064593
3229.99,0.064507
3232.0,0.064503
3234.02,0.064714
3236.04,0.064897
3238.06,0.065
3240.08,0.06515
3242.11,0.065359
3244.14,0.065605
3246.17,0.065588
3248.2,0.065769
3250.24,0.066001
3252.28,0.065876
3254.32,0.065638
3256.37,0.065651
3258.41,0.065765
3260.46,0.066054
3262.51,0.066243
3264.57,0.066215
3266.63,0.066213
3268.69,0.066259
3270.75,0.066437
3272.81,0.066641
3274.88,0.066781
3276.95,0.066969
3279.02,0.067163
3281.1,0.067192
3283.18,0.067156
3285.26,0.067255
3287.34,0.067508
3289.43,0.067801
3291.51,0.067676
3293.61,0.067603
3295.7,0.067954
3297.8,0.068218
3299.9,0.068229
3302.0,0.068252
3304.1,0.068252
3306.21,0.068491
3308.32,0.068745
3310.43,0.068794
3312.55,0.068907
3314.66,0.0691
3316.79,0.069354
3318.91,0.069663
3321.03,0.069863
3323.16,0.069858
3325.29,0.069762
3327.43,0.06983
3329.57,0.069908
3331.71,0.070022
3333.85,0.07014
3335.99,0.070298
3338.14,0.070479
3340.29,0.07064
3342.45,0.070805
3344.6,0.070893
3346.76,0.07095
3348.92,0.071104
3351.09,0.071229
3353.26,0.071456
3355.43,0.071755
3357.6,0.07188
3359.78,0.071851
3361.96,0.071942
3364.14,0.072146
3366.32,0.072303
3368.51,0.072261
3370.7,0.07229
3372.89,0.072387
3375.09,0.072639
3377.29,0.072775
3379.49,0.072958
3381.69,0.07313
3383.9,0.073224
3386.11,0.07336
3388.32,0.073626
3390.54,0.07375
3392.76,0.073913
3394.98,0.074268
3397.21,0.074412
3399.43,0.074348
3401.66,0.074354
3403.9,0.074421
3406.13,0.074565
3408.37,0.074638
3410.61,0.074761
3412.86,0.075071
3415.11,0.075293
3417.36,0.075306
3419.61,0.075417
3421.87,0.075675
3424.13,0.075953
3426.39,0.076212
3428.66,0.0766
3430.93,0.076887
3433.2,0.077308
3435.48,0.077613
3437.76,0.077684
3440.04,0.077712
3442.32,0.0779
3444.61,0.078147
3446.9,0.078415
3449.19,0.078701
3451.49,0.078961
3453.79,0.079211
3456.09,0.079457
3458.4,0.079671
3460.7,0.079834
3463.02,0.080024
3465.33,0.08027
3467.65,0.080477
3469.97,0.080741
3472.29,0.080948
3474.62,0.081211
3476.95,0.081423
3479.29,0.081701
3481.62,0.082119
3483.96,0.082342
3486.3,0.082411
3488.65,0.082615
3491.0,0.082803
3493.35,0.082984
3495.71,0.083269
3498.07,0.08362
3500.43,0.083755
3502.79,0.083931
3505.16,0.084193
3507.53,0.084474
3509.91,0.084776
3512.29,0.085144
3514.67,0.085413
3517.05,0.085709
3519.44,0.086015
3521.83,0.086459
3524.23,0.086962
3526.62,0.087203
3529.02,0.087381
3531.43,0.087758
3533.83,0.088002
3536.24,0.088296
3538.66,0.088628
3541.08,0.088881
3543.5,0.089097
3545.92,0.089413
3548.35,0.08972
3550.78,0.089999
3553.21,0.090259
3555.65,0.090626
3558.09,0.090902
3560.53,0.091206
3562.98,0.091523
3565.43,0.091747
3567.88,0.092022
3570.34,0.092362
3572.8,0.092693
3575.27,0.093115
3577.73,0.093376
3580.2,0.093642
3582.68,0.093968
3585.16,0.09426
3587.64,0.094574
3590.12,0.094932
3592.61,0.095282
3595.1,0.095566
3597.6,0.095804
3600.09,0.096111
3602.6,0.096503
3605.1,0.096864
3607.61,0.09713
3610.12,0.097385
3612.64,0.097661
3615.16,0.098049
3617.68,0.098426
3620.21,0.09868
3622.74,0.098928
3625.27,0.09927
3627.81,0.099643
3630.35,0.10009
3632.89,0.100489
3635.44,0.100848
3637.99,0.101226
3640.54,0.101612
3643.1,0.101868
3645.66,0.102085
3648.23,0.102429
3650.8,0.102871
3653.37,0.103228
3655.95,0.10368
3658.53,0.104036
3661.11,0.104342
3663.7,0.104658
3666.29,0.104994
3668.89,0.105403
3671.48,0.105864
3674.09,0.10619
3676.69,0.106484
3679.3,0.106838
3681.91,0.107301
3684.53,0.107647
3687.15,0.107979
3689.78,0.108363
3692.4,0.108849
3695.04,0.109238
3697.67,0.109659
3700.31,0.109992
3702.95,0.110309
3705.6,0.110667
3708.25,0.111081
3710.91,0.11147
3713.56,0.111891
3716.23,0.112322
3718.89,0.112745
3721.56,0.113115
3724.23,0.113538
3726.91,0.11393
3729.59,0.114358
3732.28,0.114776
3734.97,0.115168
3737.66,0.115607
3740.36,0.116009
3743.06,0.116423
3745.76,0.116853
3748.47,0.117269
3751.18,0.117696
3753.9,0.118154
3756.62,0.118596
3759.34,0.11901
3762.07,0.119483
3764.8,0.119892
3767.54,0.120287
3770.28,0.120795
3773.02,0.121243
3775.77,0.121688
3778.52,0.122164
3781.28,0.122594
3784.04,0.123051
3786.8,0.123544
3789.57,0.123949
3792.34,0.124374
3795.12,0.12487
3797.9,0.125338
3800.69,0.125876
3803.47,0.126344
3806.27,0.126818
3809.06,0.127232
3811.86,0.127605
3814.67,0.128134
3817.48,0.12872
3820.29,0.129203
3823.11,0.129719
3825.93,0.130183
3828.76,0.130678
3831.59,0.131157
3834.42,0.131618
3837.26,0.132135
3840.1,0.132687
3842.95,0.133126
3845.8,0.133575
3848.65,0.134014
3851.51,0.134571
3854.38,0.135083
3857.24,0.135669
3860.12,0.13617
3862.99,0.136705
3865.87,0.137202
3868.76,0.137681
3871.65,0.138198
3874.54,0.138723
3877.44,0.139178
3880.34,0.139748
3883.25,0.1403
3886.16,0.14083
3889.07,0.141361
3891.99,0.141875
3894.92,0.142387
3897.85,0.142933
3900.78,0.143448
3903.72,0.143993
3906.66,0.144476
3909.6,0.145038
3912.55,0.145591
3915.51,0.146153
3918.47,0.146707
3921.43,0.147245
3924.4,0.147762
3927.38,0.148261
3930.35,0.148794
3933.33,0.149405
3936.32,0.150002
3939.31,0.150585
3942.31,0.1511
3945.31,0.151628
3948.31,0.152144
3951.32,0.152789
3954.34,0.153371
3957.35,0.15398
3960.38,0.154497
3963.41,0.155084
3966.44,0.155671
3969.48,0.156266
3972.52,0.156831
3975.56,0.157403
3978.61,0.157968
3981.67,0.158547
3984.73,0.159146
3987.8,0.159754
3990.87,0.160343
3993.94,0.16092
3997.02,0.161485
4000.1,0.162108
4003.19,0.162733
4006.29,0.163428
4009.39,0.164018
4012.49,0.164544
4015.6,0.165144
4018.71,0.165817
4021.83,0.166378
4024.95,0.166953
4028.08,0.167508
4031.21,0.168172
4034.35,0.168847
4037.49,0.16947
4040.64,0.170075
4043.79,0.170738
4046.94,0.17132
4050.11,0.171935
4053.27,0.172577
4056.44,0.173202
4059.62,0.173813
4062.8,0.174468
4065.99,0.175089
4069.18,0.175764
4072.38,0.176353
4075.58,0.176977
4078.78,0.177647
4082.0,0.178305
4085.21,0.178961
4088.43,0.179657
4091.66,0.180234
4094.89,0.18088
4098.13,0.181471
4101.37,0.182142
4104.62,0.182839
4107.87,0.183491
4111.13,0.184132
4114.39,0.184879
4117.66,0.18555
4120.93,0.186198
4124.21,0.18682
4127.5,0.187403
4130.79,0.188091
4134.08,0.188832
4137.38,0.189506
4140.68,0.190224
4143.99,0.190899
4147.31,0.191612
4150.63,0.192221
4153.95,0.192858
4157.29,0.193533
4160.62,0.194303
4163.96,0.195043
4167.31,0.195697
4170.66,0.196338
4174.02,0.197041
4177.39,0.197767
4180.75,0.198523
4184.13,0.199187
4187.51,0.199905
4190.89,0.200633
4194.28,0.201327
4197.68,0.201959
4201.08,0.202558
4204.49,0.203244
4207.9,0.204011
4211.32,0.204631
4214.74,0.205119
4218.17,0.205619
4221.61,0.206248
4225.05,0.206905
4228.5,0.207558
4231.95,0.208197
4235.4,0.208939
4238.87,0.209667
4242.34,0.210403
4245.81,0.211185
4249.29,0.211998
4252.78,0.212813
4256.27,0.21372
4259.77,0.214582
4263.27,0.215252
4266.78,0.2158
4270.29,0.216389
4273.81,0.21708
4277.34,0.21779
4280.87,0.218571
4284.41,0.219348
4287.95,0.220074
4291.5,0.220801
4295.06,0.221573
4298.62,0.222332
4302.19,0.223031
4305.76,0.22383
4309.34,0.224592
4312.92,0.225455
4316.52,0.226283
4320.11,0.227064
4323.72,0.227835
4327.32,0.228614
4330.94,0.22936
4334.56,0.230095
4338.19,0.230913
4341.82,0.231739
4345.46,0.232462
4349.11,0.233209
4352.76,0.233932
4356.42,0.234676
4360.08,0.235506
4363.75,0.236224
4367.43,0.236926
4371.11,0.237721
4374.8,0.238443
4378.49,0.239191
4382.19,0.239907
4385.9,0.240589
4389.61,0.241353
4393.33,0.242152
4397.06,0.242877
4400.79,0.2436
4404.53,0.244325
4408.28,0.245057
4412.03,0.245724
4415.79,0.246405
4419.55,0.247101
4423.32,0.247908
4427.1,0.248722
4430.88,0.249422
4434.68,0.250124
4438.47,0.250867
4442.28,0.251553
4446.08,0.252244
4449.9,0.252925
4453.72,0.253694
4457.55,0.254464
4461.39,0.255147
4465.23,0.255886
4469.08,0.256631
4472.94,0.257353
4476.8,0.258079
4480.67,0.258785
4484.55,0.259513
4488.43,0.260291
4492.32,0.261035
4496.21,0.261695
4500.12,0.262389
4504.03,0.263152
4507.94,0.263906
4511.87,0.264602
4515.8,0.265246
4519.73,0.26596
4523.68,0.266681
4527.63,0.267395
4531.59,0.26809
4535.55,0.268819
4539.52,0.269554
4543.5,0.270251
4547.49,0.270974
4551.48,0.27163
4555.48,0.272294
4559.49,0.273039
4563.5,0.273725
4567.52,0.274354
4571.55,0.275046
4575.58,0.275749
4579.63,0.276422
4583.67,0.277102
4587.73,0.277793
4591.79,0.278486
4595.86,0.279168
4599.94,0.279816
4604.03,0.280449
4608.12,0.281142
4612.22,0.281833
4616.33,0.282466
4620.44,0.28312
4624.56,0.283801
4628.69,0.284484
4632.83,0.285135
4636.97,0.285827
4641.12,0.286433
4645.28,0.287069
4649.45,0.287699
4653.62,0.288386
4657.8,0.289045
4661.99,0.289694
4666.19,0.29033
4670.39,0.290958
4674.6,0.291558
4678.82,0.292204
4683.05,0.292824
4687.28,0.293469
4691.52,0.294041
4695.77,0.294634
4700.03,0.2953
4704.3,0.29594
4708.57,0.296581
4712.85,0.297188
4717.14,0.297812
4721.43,0.298421
4725.74,0.298996
4730.05,0.299572
4734.37,0.300163
4738.7,0.300787
4743.03,0.30136
4747.38,0.301919
4751.73,0.30248
4756.09,0.303081
4760.45,0.30363
4764.83,0.30421
4769.21,0.304721
4773.6,0.305211
4778.0,0.305733
4782.41,0.306264
4786.83,0.306808
4791.25,0.307325
4795.68,0.307837
4800.13,0.308427
4804.57,0.308985
4809.03,0.30945
4813.5,0.30999
4817.97,0.310525
4822.45,0.311111
4826.94,0.311693
4831.44,0.312177
4835.95,0.312694
4840.46,0.313275
4844.99,0.313866
4849.52,0.314441
4854.06,0.314977
4858.61,0.315543
4863.17,0.316086
4867.73,0.316573
4872.31,0.317105
4876.89,0.317658
4881.48,0.318152
4886.08,0.31861
4890.69,0.319101
4895.31,0.319582
4899.94,0.320006
4904.57,0.320426
4909.22,0.320896
4913.87,0.321316
4918.53,0.321689
4923.21,0.322083
4927.88,0.32259
4932.57,0.323112
4937.27,0.323486
4941.98,0.323896
4946.69,0.324398
4951.42,0.324904
4956.15,0.325338
4960.9,0.325794
4965.65,0.326218
4970.41,0.326658
4975.18,0.327132
4979.96,0.327588
4984.75,0.327962
4989.54,0.328345
4994.35,0.328781
4999.17,0.329169
5003.99,0.329564
5008.83,0.329978
5013.67,0.330421
5018.52,0.330802
5023.39,0.331182
5028.26,0.331598
5033.14,0.332017
5038.03,0.332404
5042.93,0.332841
5047.84,0.33328
5052.76,0.333715
5057.69,0.334127
5062.63,0.334596
5067.58,0.335011
5072.54,0.335406
5077.51,0.335794
5082.49,0.336193
5087.47,0.336636
5092.47,0.337054
5097.48,0.337458
5102.5,0.337851
5107.52,0.338229
5112.56,0.338629
5117.61,0.339075
5122.66,0.339478
5127.73,0.339872
5132.81,0.340265
5137.89,0.340663
5142.99,0.341033
5148.1,0.341372
5153.22,0.341764
5158.34,0.342152
5163.48,0.342504
5168.63,0.342925
5173.79,0.343322
5178.96,0.343659
5184.13,0.343997
5189.32,0.344329
5194.52,0.344712
5199.73,0.345067
5204.96,0.345414
5210.19,0.345759
5215.43,0.346046
5220.68,0.346365
5225.94,0.346653
5231.22,0.346922
5236.5,0.347167
5241.79,0.347423
5247.1,0.347672
5252.42,0.34798
5257.74,0.348192
5263.08,0.348447
5268.43,0.348692
5273.79,0.348898
5279.16,0.349053
5284.54,0.349257
5289.93,0.34942
5295.34,0.349662
5300.75,0.349856
5306.18,0.350017
5311.61,0.350174
5317.06,0.350299
5322.52,0.350371
5327.99,0.350491
5333.47,0.350571
5338.96,0.350588
5344.47,0.35066
5349.98,0.350716
5355.51,0.35081
5361.05,0.350952
5366.6,0.350941
5372.16,0.350902
5377.73,0.350937
5383.32,0.350994
5388.91,0.351066
5394.52,0.351116
5400.14,0.351217
5405.77,0.351293
5411.41,0.351337
5417.07,0.351404
5422.74,0.351494
5428.41,0.351785
5434.1,0.351941
5439.81,0.352073
5445.52,0.352166
5451.25,0.352284
5456.98,0.352404
5462.73,0.35244
5468.5,0.352511
5474.27,0.352628
5480.06,0.352683
5485.86,0.352759
5491.67,0.352765
5497.49,0.352706
5503.33,0.352569
5509.18,0.35247
5515.04,0.352274
5520.91,0.352152
5526.8,0.35203
5532.69,0.352024
5538.61,0.351998
5544.53,0.351977
5550.47,0.351965
5556.41,0.352042
5562.38,0.352172
5568.35,0.352388
5574.34,0.352504
5580.34,0.352601
5586.35,0.352871
5592.38,0.353218
5598.42,0.353391
5604.47,0.353535
5610.54,0.353644
5616.61,0.353721
5622.71,0.353792
5628.81,0.353898
5634.93,0.354018
5641.06,0.353968
5647.21,0.354007
5653.36,0.35416
5659.54,0.354161
5665.72,0.354187
5671.92,0.354142
5678.13,0.35406
5684.36,0.354075
5690.6,0.354051
5696.85,0.353882
5703.12,0.353759
5709.4,0.353577
5715.69,0.353467
5722.0,0.35339
5728.33,0.353285
5734.66,0.353068
5741.01,0.352973
5747.38,0.352695
5753.76,0.352497
5760.15,0.352162
5766.56,0.351846
5772.98,0.351619
5779.41,0.351538
5785.86,0.351279
5792.33,0.350894
5798.81,0.350507
5805.3,0.350023
5811.81,0.349574
5818.33,0.349116
5824.87,0.348575
5831.42,0.348158
5837.99,0.347722
5844.57,0.347167
5851.17,0.346501
5857.78,0.345884
5864.41,0.345103
5871.05,0.344487
5877.7,0.343573
5884.38,0.342802
5891.06,0.341942
5897.76,0.341296
5904.48,0.34053
5911.21,0.339637
5917.96,0.338697
5924.73,0.337687
5931.5,0.336797
5938.3,0.335924
5945.11,0.334987
5951.93,0.334081
5958.78,0.333221
5965.63,0.332308
5972.51,0.331535
5979.39,0.330718
5986.3,0.330042
5993.22,0.329419
6000.16,0.328965
6007.11,0.328666
6014.08,0.328292
6021.06,0.328147
6028.06,0.328041
6035.08,0.327913
6042.12,0.327791
6049.17,0.327613
6056.23,0.327651
6063.32,0.327638
6070.42,0.327426
6077.53,0.327061
6084.67,0.326903
6091.82,0.326643
6098.98,0.326254
6106.17,0.325881
6113.37,0.325358
6120.58,0.324963
6127.82,0.324625
6135.07,0.324253
6142.34,0.323827
6149.63,0.323486
6156.93,0.323109
6164.25,0.32276
6171.59,0.322458
6178.95,0.322219
6186.32,0.321933
6193.71,0.321748
6201.12,0.321631
6208.54,0.321504
6215.99,0.321291
6223.45,0.321204
6230.93,0.321102
6238.43,0.321117
6245.95,0.321179
6253.48,0.321332
6261.03,0.32153
6268.6,0.321753
6276.19,0.322063
6283.8,0.322427
6291.43,0.322782
6299.07,0.323211
6306.73,0.323572
6314.42,0.32393
6322.12,0.324248
6329.84,0.324619
6337.57,0.32497
6345.33,0.325291
6353.11,0.325771
6360.9,0.326298
6368.72,0.326629
6376.55,0.327006
6384.4,0.327428
6392.27,0.327726
6400.17,0.328075
6408.08,0.328367
6416.01,0.328661
6423.96,0.329097
6431.93,0.329463
6439.92,0.329704
6447.93,0.329813
6455.96,0.330002
6464.01,0.330128
6472.08,0.330245
6480.17,0.330315
6488.28,0.33037
6496.41,0.330562
6504.56,0.330831
6512.73,0.331024
6520.92,0.331098
6529.14,0.331121
6537.37,0.331222
6545.63,0.331298
6553.9,0.331245
6562.2,0.331285
6570.51,0.331197
6578.85,0.331237
6587.21,0.331122
6595.59,0.33105
6603.99,0.330815
6612.42,0.330571
6620.86,0.330406
6629.33,0.330181
6637.82,0.329958
6646.33,0.329749
6654.86,0.329598
6663.41,0.329317
6671.99,0.32901
6680.59,0.328697
6689.21,0.32837
6697.85,0.328033
6706.51,0.327737
6715.2,0.32734
6723.91,0.326915
6732.64,0.326541
6741.4,0.326107
6750.18,0.325587
6758.98,0.325012
6767.8,0.324376
6776.65,0.323726
6785.52,0.322932
6794.41,0.322114
6803.33,0.321081
6812.27,0.32014
6821.23,0.319279
6830.22,0.31851
6839.23,0.317865
6848.26,0.317375
6857.32,0.316914
6866.4,0.316519
6875.51,0.316185
6884.64,0.316011
6893.8,0.31589
6902.98,0.315637
6912.18,0.3155
6921.41,0.315344
6930.66,0.315244
6939.94,0.315087
6949.24,0.314903
6958.57,0.314802
6967.92,0.314722
6977.3,0.314552
6986.7,0.314392
6996.13,0.314103
7005.59,0.313898
7015.07,0.313721
7024.57,0.313588
7034.1,0.313454
7043.66,0.313369
7053.25,0.313378
7062.85,0.313293
7072.49,0.313311
7082.15,0.313249
7091.84,0.313166
7101.55,0.31307
7111.3,0.312924
7121.06,0.31277
7130.86,0.31259
7140.68,0.312382
7150.53,0.312149
7160.41,0.311865
7170.31,0.311631
7180.24,0.311351
7190.2,0.311029
7200.19,0.310696
7210.2,0.310266
7220.24,0.309828
7230.31,0.309372
7240.41,0.308887
7250.54,0.308416
7260.69,0.308002
7270.88,0.307489
7281.09,0.306947
7291.33,0.306307
7301.6,0.305652
7311.9,0.305026
7322.22,0.30442
7332.58,0.303842
7342.97,0.303237
7353.38,0.302668
7363.83,0.302134
7374.3,0.301536
7384.81,0.30091
7395.34,0.300324
7405.91,0.299812
7416.5,0.299373
7427.13,0.298992
7437.78,0.298696
7448.47,0.298384
7459.19,0.298052
7469.94,0.297787
7480.71,0.297517
7491.52,0.297251
7502.37,0.29694
7513.24,0.296575
7524.14,0.296198
7535.08,0.29574
7546.05,0.295214
7557.05,0.294677
7568.08,0.294089
7579.15,0.293431
7590.24,0.2927
7601.37,0.291914
7612.53,0.291066
7623.73,0.290098
7634.96,0.289134
7646.22,0.288163
7657.51,0.287162
7668.84,0.286098
7680.2,0.284983
7691.59,0.283798
7703.02,0.282681
7714.49,0.281569
7725.98,0.280459
7737.52,0.279349
7749.08,0.278208
7760.68,0.277017
7772.32,0.275848
7783.99,0.27464
7795.69,0.273504
7807.43,0.272401
7819.21,0.27136
7831.02,0.270332
7842.87,0.269465
7854.75,0.26861
7866.67,0.267763
7878.62,0.266936
7890.62,0.26617
7902.64,0.265386
7914.71,0.264513
7926.81,0.263451
7938.95,0.262266
7951.13,0.2611
7963.34,0.259941
7975.59,0.258726
7987.88,0.257602
8000.21,0.256539
8012.57,0.255653
8024.98,0.254938
8037.42,0.254467
8049.9,0.254222
8062.42,0.254332
8074.98,0.254663
8087.57,0.255225
8100.21,0.255986
8112.89,0.256948
8125.6,0.257853
8138.36,0.258824
8151.16,0.259727
8163.99,0.260558
8176.87,0.261182
8189.79,0.261651
8202.75,0.261927
8215.75,0.262086
8228.79,0.261989
8241.87,0.261701
8254.99,0.26118
8268.16,0.260513
8281.37,0.259728
8294.62,0.258864
8307.91,0.257859
8321.24,0.256756
8334.62,0.255498
8348.04,0.254206
8361.51,0.252834
8375.02,0.251397
8388.57,0.249775
8402.16,0.248042
8415.8,0.246165
8429.49,0.24417
8443.22,0.241918
8456.99,0.23948
8470.81,0.23685
8484.67,0.234118
8498.58,0.231165
8512.54,0.228128
8526.54,0.224981
8540.58,0.221883
8554.68,0.218731
8568.82,0.215646
8583.0,0.212625
8597.24,0.209728
8611.52,0.206945
8625.85,0.204516
8640.23,0.2023
8654.65,0.200331
8669.12,0.198464
8683.64,0.196986
8698.21,0.19568
8712.83,0.194539
8727.5,0.193502
8742.22,0.192604
8756.99,0.191685
8771.8,0.190863
8786.67,0.190008
8801.59,0.189231
8816.56,0.188304
8831.58,0.187324
8846.65,0.186178
8861.77,0.184988
8876.94,0.183626
8892.17,0.182182
8907.45,0.180452
8922.78,0.178529
8938.16,0.176369
8953.6,0.174016
8969.09,0.171243
8984.64,0.168052
9000.23,0.16413
9015.89,0.159423
9031.59,0.153845
9047.36,0.147536
9063.17,0.140416
9079.05,0.133145
9094.97,0.12609
9110.96,0.119631
9127.0,0.113667
9143.1,0.108393
9159.25,0.103417
9175.46,0.098827
9191.73,0.094368
9208.06,0.090397
9224.44,0.086844
9240.88,0.083956
9257.38,0.081511
9273.94,0.079753
9290.56,0.078382
9307.24,0.077527
9323.98,0.076964
9340.78,0.076815
9357.64,0.076634
9374.57,0.076607
9391.55,0.076568
9408.59,0.076637
9425.7,0.076537
9442.87,0.076467
9460.1,0.07619
9477.4,0.075777
9494.75,0.074848
9512.17,0.073595
9529.66,0.071851
9547.21,0.069896
9564.83,0.0676
9582.5,0.065367
9600.25,0.063313
9618.06,0.061795
9635.94,0.060642
9653.88,0.060029
9671.89,0.059673
9689.97,0.059652
9708.12,0.059711
9726.33,0.059941
9744.62,0.060094
9762.97,0.060367
9781.39,0.060577
9799.88,0.060934
9818.44,0.061182
9837.07,0.061556
9855.77,0.061855
9874.54,0.062296
9893.39,0.062576
9912.3,0.062919
9931.29,0.063116
9950.36,0.063225
9969.49,0.063047
9988.7,0.062865
10007.98,0.06239
10027.34,0.061906
10046.77,0.061337
10066.28,0.060884
10085.87,0.060253
10105.53,0.059676
10125.26,0.05902
10145.08,0.05841
10164.97,0.057599
10184.94,0.056779
10204.99,0.05583
10225.12,0.054901
10245.33,0.053776
10265.61,0.052638
10285.98,0.051296
10306.43,0.049986
10326.96,0.048593
10347.57,0.047283
10368.27,0.045934
10389.05,0.044775
10409.91,0.043489
10430.86,0.042334
10451.88,0.04125
10473.0,0.040408
10494.2,0.039541
10515.49,0.038968
10536.86,0.038496
10558.32,0.038266
10579.87,0.038082
10601.5,0.038169
10623.23,0.038313
10645.04,0.038615
10666.94,0.038906
10688.94,0.039396
10711.02,0.039891
10733.2,0.040604
10755.47,0.041363
10777.83,0.042328
10800.28,0.04336
10822.83,0.044562
10845.47,0.045657
10868.21,0.046677
10891.04,0.04746
10913.97,0.048174
10936.99,0.048617
10960.12,0.049024
10983.34,0.049244
11006.66,0.049436
11030.07,0.049526
11053.59,0.049702
11077.21,0.04977
11100.93,0.049832
11124.75,0.049729
11148.68,0.049718
11172.71,0.049632
11196.84,0.049663
11221.07,0.049563
11245.41,0.04957
11269.86,0.049505
11294.41,0.049619
11319.07,0.049678
11343.84,0.049776
11368.72,0.049691
11393.7,0.049546
11418.8,0.04913
11444.01,0.048576
11469.33,0.047927
11494.76,0.047373
11520.3,0.046711
11545.96,0.046145
11571.73,0.045553
11597.62,0.045049
11623.62,0.044441
11649.74,0.043896
11675.98,0.043317
11702.34,0.042948
11728.81,0.042444
11755.41,0.042095
11782.13,0.041661
11808.96,0.041284
11835.92,0.040882
11863.01,0.04059
11890.22,0.040218
11917.55,0.040096
11945.01,0.039975
11972.6,0.039958
12000.31,0.039873
12028.16,0.039954
12056.13,0.039751
12084.23,0.039453
12112.46,0.03883
12140.83,0.037986
12169.33,0.036789
12197.96,0.035625
12226.73,0.03455
12255.64,0.033991
12284.68,0.033734
12313.86,0.033779
12343.18,0.03362
12372.64,0.033155
12402.24,0.032239
12431.98,0.031173
12461.86,0.029914
12491.89,0.02879
12522.07,0.027546
12552.38,0.026517
12582.85,0.025512
12613.47,0.024692
12644.23,0.023826
12675.15,0.023135
12706.21,0.022374
12737.43,0.021832
12768.81,0.021322
12800.33,0.020933
12832.02,0.020481
12863.86,0.020225
12895.86,0.019936
12928.02,0.019854
12960.34,0.019773
12992.82,0.019851
13025.46,0.019931
13058.27,0.020292
13091.25,0.020717
13124.39,0.021427
13157.7,0.02217
13191.18,0.023364
13224.83,0.024775
13258.66,0.026511
13292.65,0.028311
13326.83,0.03051
13361.17,0.032927
13395.7,0.035691
13430.4,0.038524
13465.29,0.041631
13500.35,0.044774
13535.6,0.048079
13571.03,0.051279
13606.65,0.054358
13642.46,0.057008
13678.46,0.059211
13714.64,0.060769
13751.02,0.061992
13787.59,0.062709
13824.36,0.063032
13861.32,0.063033
13898.49,0.062967
13935.85,0.062593
13973.41,0.06226
14011.17,0.061888
14049.15,0.061617
14087.32,0.06123
14125.71,0.06092
14164.3,0.060564
14203.11,0.06045
14242.13,0.060432
14281.36,0.060431
14320.81,0.060451
14360.49,0.060745
14400.38,0.060974
14440.49,0.061348
14480.82,0.061632
14521.39,0.062046
14562.18,0.062398
14603.2,0.062949
14644.45,0.06351
14685.93,0.064184
14727.66,0.064731
14769.62,0.065303
14811.81,0.065769
14854.25,0.066359
14896.94,0.066775
14939.87,0.067231
14983.05,0.067505
15026.48,0.067829
15070.16,0.068064
15114.1,0.068293
15158.29,0.068238
15202.74,0.068351
15247.46,0.068327
15292.43,0.068224
15337.68,0.068113
15383.19,0.06809
15428.97,0.067846
15475.03,0.0677
15521.36,0.067446
15567.97,0.06721
15614.87,0.066992
15662.04,0.066887
15709.5,0.066717
15757.25,0.066723
15805.29,0.06672
15853.62,0.066708
15902.26,0.066651
15951.19,0.066624
16000.42,0.066337
16049.95,0.06612
16099.8,0.065529
16149.95,0.064302
16200.42,0.062322
16251.21,0.059777
16302.31,0.056478
16353.74,0.052954
16405.49,0.049527
16457.57,0.046423
16509.98,0.043517
16562.73,0.041189
16615.82,0.039038
16669.24,0.037233
16723.02,0.035429
16777.14,0.033865
16831.61,0.032447
16886.43,0.031361
16941.62,0.029972
16997.16,0.02871
17053.08,0.027562
17109.36,0.026386
17166.01,0.024944
17223.04,0.023652
17280.45,0.022355
17338.24,0.021172
17396.43,0.019777
17455.0,0.018304
17513.97,0.0169
17573.34,0.015952
17633.11,0.015277
17693.29,0.015449
17753.89,0.016544
17814.9,0.018713
17876.33,0.021647
17938.18,0.025305
18000.47,0.029354
18063.19,0.033966
18126.35,0.038605
18189.95,0.043125
18254.0,0.047248
18318.5,0.051149
18383.46,0.054433
18448.88,0.05759
18514.77,0.06034
18581.13,0.063005
18647.97,0.065169
18715.29,0.067231
18783.1,0.06899
18851.4,0.070603
18920.2,0.07195
18989.51,0.073241
19059.32,0.074265
19129.65,0.075288
19200.5,0.07594
19271.88,0.076681
19343.79,0.077216
19416.24,0.077833
19489.23,0.078108
19562.77,0.078136
19636.88,0.078161
19711.54,0.078551
19786.78,0.078902
19862.59,0.079705
19938.98,0.081032
20015.96,0.082858
20093.55,0.08447
20171.73,0.08625
20250.53,0.087898
20329.94,0.089532
20409.98,0.090675
20490.65,0.091954
20571.96,0.093198
20653.92,0.09411
20736.54,0.094335
20819.82,0.09426
20903.77,0.093178
20988.4,0.091233
21073.72,0.087793
21159.73,0.083591
21246.46,0.078974
21333.89,0.074928
21422.04,0.071161
21510.93,0.067991
21600.56,0.065095
21690.94,0.06293
21782.08,0.061028
21873.99,0.059493
21966.67,0.058353
22060.15,0.057616
22154.42,0.056187
22249.51,0.054629
22345.41,0.052941
22442.14,0.052394
22539.72,0.051164
22638.14,0.049998
22737.43,0.048842
22837.6,0.048104
22938.65,0.047565
23040.6,0.047591
23143.46,0.047396
23247.24,0.047965
23351.96,0.048694
23457.63,0.049534
23564.25,0.050155
23671.85,0.051642
23780.44,0.052347
23890.02,0.052684
24000.63,0.052394
24112.26,0.053446
24224.93,0.053357
24338.66,0.052999
24453.47,0.053134
24569.36,0.052753
24686.36,0.052281
24804.47,0.053155
24923.73,0.053406
25044.13,0.053871
25165.71,0.053769
25288.46,0.055144
25412.43,0.054475
25537.61,0.054867
25664.04,0.055382
25791.72,0.055187
25920.68,0.05386
