Database of Origin,University of Winnipeg Spectrophotometer Facility
Sample Description,Carbonates and Oxolates - RELAB+Nicolet spectra Newly merged spectra (merged by RELAB)
Other Information,Baked
Date Added,2018-08-06 20:49:03.111999

Data ID,RLA_CARB_1_45       
Sample ID,CRB213Bk
Mineral Name,Thermonatr.
Locality,Keeler/ Inyo County/ California/ USA
Grain Size,<45 um
Viewing Geometry,30/0/30
Resolution,5/ 0.6-129 nm
Formula,Na2CO3*(H2O)
Composition,Trona/ natrite and wegscheiderite

Wavelength
305.0,0.731853
310.0,0.736416
315.0,0.746638
320.0,0.752221
325.0,0.758774
330.0,0.764016
335.0,0.769369
340.0,0.775881
345.0,0.779138
350.0,0.784244
355.0,0.788551
360.0,0.793648
365.0,0.798107
370.0,0.802451
375.0,0.806677
380.0,0.810731
385.0,0.814796
390.0,0.818412
395.0,0.821618
400.0,0.823219
405.0,0.825729
410.0,0.827365
415.0,0.829861
420.0,0.831248
425.0,0.833574
430.0,0.834688
435.0,0.837719
440.0,0.839193
445.0,0.841732
450.0,0.842203
455.0,0.845227
460.0,0.845968
465.0,0.849256
470.0,0.850351
475.0,0.852739
480.0,0.853703
485.0,0.855113
490.0,0.856471
495.0,0.858814
500.0,0.860193
505.0,0.862016
510.0,0.862594
515.0,0.865068
520.0,0.866366
525.0,0.86783
530.0,0.868747
535.0,0.870189
540.0,0.871375
545.0,0.872377
550.0,0.873697
555.0,0.874688
560.0,0.875114
565.0,0.876737
570.0,0.87735
575.0,0.878729
580.0,0.878817
585.0,0.880153
590.0,0.880357
595.0,0.881512
600.0,0.88169
605.0,0.882122
610.0,0.882571
615.0,0.883515
620.0,0.88351
625.0,0.884173
630.0,0.884745
635.0,0.885565
640.0,0.885737
645.0,0.88632
650.0,0.885322
655.0,0.886746
660.0,0.88789
665.0,0.887697
670.0,0.888068
675.0,0.88858
680.0,0.889146
685.0,0.889527
690.0,0.88941
695.0,0.890274
700.0,0.889906
705.0,0.891529
710.0,0.890502
715.0,0.891599
720.0,0.890874
725.0,0.891712
730.0,0.892073
735.0,0.89199
740.0,0.892943
745.0,0.892635
750.0,0.892121
755.0,0.892931
760.0,0.895084
765.0,0.89349
770.0,0.893721
775.0,0.89451
780.0,0.894818
785.0,0.895454
790.0,0.895044
795.0,0.895637
800.0,0.894763
805.0,0.895173
810.0,0.895246
815.0,0.895562
820.0,0.896017
825.0,0.895137
830.0,0.896096
835.0,0.896273
840.0,0.895913
845.0,0.897326
850.0,0.896676
855.0,0.89903
860.0,0.8963
865.0,0.89839
870.0,0.898877
875.0,0.898347
880.0,0.89574
885.0,0.898701
890.0,0.897937
895.0,0.89824
900.0,0.898642
905.0,0.898885
910.0,0.898365
915.0,0.899397
920.0,0.898688
925.0,0.89988
930.0,0.90054
935.0,0.89957
940.0,0.900029
945.0,0.900297
950.0,0.900365
955.0,0.900436
960.0,0.90097
965.0,0.900734
970.0,0.901483
975.0,0.900517
980.0,0.901025
985.0,0.901083
990.0,0.902376
995.0,0.902151
1000.0,0.900387
1005.0,0.90131
1010.0,0.901333
1015.0,0.900769
1020.0,0.901117
1025.0,0.900981
1030.0,0.902335
1035.0,0.902426
1040.0,0.902339
1045.0,0.902021
1050.0,0.902767
1055.0,0.902094
1060.0,0.902328
1065.0,0.901994
1070.0,0.902083
1075.0,0.902661
1080.0,0.902906
1085.0,0.902275
1090.0,0.902779
1095.0,0.90362
1100.0,0.903796
1105.0,0.903352
1110.0,0.903615
1115.0,0.904412
1120.0,0.903089
1125.0,0.903942
1130.0,0.903061
1135.0,0.90404
1140.0,0.903924
1145.0,0.903371
1150.0,0.903526
1155.0,0.904112
1160.0,0.904507
1165.0,0.903164
1170.0,0.903133
1175.0,0.903481
1180.0,0.901616
1185.0,0.90146
1190.0,0.903582
1195.0,0.903369
1200.0,0.903941
1205.0,0.904228
1210.0,0.905139
1215.0,0.904933
1220.0,0.905277
1225.0,0.905129
1230.0,0.904569
1235.0,0.90396
1240.0,0.904688
1245.0,0.904742
1250.0,0.905163
1255.0,0.905165
1260.0,0.905142
1265.0,0.905157
1270.0,0.905604
1275.0,0.904709
1280.0,0.903789
1285.0,0.905469
1290.0,0.90362
1295.0,0.903785
1300.0,0.903483
1305.0,0.904699
1310.0,0.904655
1315.0,0.904786
1320.0,0.90352
1325.0,0.901164
1330.0,0.902646
1335.0,0.903438
1340.0,0.900503
1345.0,0.900637
1350.0,0.901802
1355.0,0.901015
1360.0,0.900499
1365.0,0.898337
1370.0,0.898425
1375.0,0.898362
1380.0,0.898823
1385.0,0.898138
1420.0,0.892755
1425.0,0.892173
1430.0,0.891194
1435.0,0.891319
1440.0,0.890554
1445.0,0.889657
1450.0,0.887489
1455.0,0.887686
1460.0,0.88871
1465.0,0.886292
1470.0,0.884573
1475.0,0.883576
1480.0,0.8834
1485.0,0.882305
1490.0,0.879931
1495.0,0.88011
1500.0,0.878901
1505.0,0.87753
1510.0,0.879358
1515.0,0.876074
1520.0,0.876857
1525.0,0.875475
1530.0,0.876426
1535.0,0.874668
1540.0,0.87429
1545.0,0.873398
1550.0,0.873203
1555.0,0.873084
1560.0,0.872497
1565.0,0.872256
1570.0,0.871847
1575.0,0.871572
1580.0,0.871131
1585.0,0.870641
1590.0,0.870349
1595.0,0.869739
1600.0,0.869039
1605.0,0.868774
1610.0,0.868138
1615.0,0.867526
1620.0,0.867041
1625.0,0.866532
1630.0,0.865695
1635.0,0.864973
1640.0,0.864402
1645.0,0.863489
1650.0,0.86244
1655.0,0.861453
1660.0,0.860256
1665.0,0.859046
1670.0,0.857807
1675.0,0.856238
1680.0,0.855037
1685.0,0.853831
1690.0,0.852453
1695.0,0.851192
1700.0,0.850017
1705.31,0.848701
1709.81,0.848173
1715.46,0.847634
1720.02,0.84693
1724.6,0.846286
1730.35,0.845594
1734.98,0.84498
1739.64,0.84424
1745.5,0.843289
1750.21,0.842461
1754.95,0.841847
1759.72,0.841213
1764.51,0.840533
1770.54,0.839631
1775.39,0.838746
1780.27,0.837794
1785.17,0.836949
1790.1,0.835976
1795.06,0.834879
1800.05,0.833744
1805.06,0.832535
1810.1,0.831119
1815.17,0.829777
1820.27,0.828343
1825.4,0.826824
1830.56,0.825138
1834.44,0.824081
1839.65,0.822464
1844.89,0.821044
1850.16,0.819387
1855.45,0.818043
1859.45,0.816768
1864.8,0.815227
1870.18,0.81349
1875.59,0.811838
1879.67,0.810672
1885.14,0.80929
1890.64,0.808298
1894.79,0.80769
1900.34,0.806488
1904.53,0.805684
1910.15,0.80439
1914.38,0.803229
1920.05,0.802072
1924.33,0.801045
1930.06,0.799799
1934.38,0.799029
1940.17,0.797577
1944.54,0.796516
1950.39,0.795333
1954.8,0.794406
1960.72,0.793176
1965.18,0.792272
1969.66,0.791259
1975.66,0.789905
1980.19,0.788952
1984.74,0.787966
1989.31,0.786907
1995.43,0.785328
2000.05,0.784399
2004.69,0.7832
2009.35,0.782225
2015.6,0.781272
2020.32,0.780637
2025.05,0.780015
2029.81,0.779231
2034.59,0.778352
2039.39,0.777682
2044.22,0.776922
2050.69,0.775646
2055.57,0.77475
2060.47,0.773573
2065.39,0.773005
2070.34,0.77184
2075.31,0.770811
2080.31,0.769681
2085.33,0.768642
2090.38,0.767609
2095.45,0.766348
2100.54,0.765429
2105.66,0.76441
2110.8,0.763399
2114.25,0.762677
2119.43,0.761665
2124.65,0.760638
2129.88,0.759438
2135.15,0.758195
2140.44,0.756993
2145.75,0.755842
2149.31,0.755
2154.67,0.753485
2160.06,0.751664
2165.47,0.749793
2170.91,0.748519
2174.55,0.74739
2180.04,0.746012
2185.55,0.744542
2189.25,0.743677
2194.81,0.742006
2200.4,0.740302
2204.14,0.738982
2209.78,0.736994
2215.44,0.735189
2219.24,0.73404
2224.95,0.732056
2230.7,0.729625
2234.54,0.72796
2240.33,0.725377
2244.21,0.723333
2250.06,0.720186
2255.93,0.717085
2259.87,0.715214
2265.79,0.712482
2269.76,0.710278
2275.74,0.707233
2279.74,0.705065
2285.77,0.702379
2289.81,0.70058
2295.9,0.698015
2299.97,0.696653
2304.06,0.695753
2310.22,0.695169
2314.35,0.695034
2320.56,0.694553
2324.72,0.693933
2331.0,0.692688
2335.2,0.69146
2339.41,0.690145
2345.76,0.687649
2350.02,0.685991
2354.28,0.68496
2360.72,0.685846
2365.03,0.687647
2369.35,0.689687
2375.86,0.691256
2380.23,0.69136
2384.61,0.690951
2389.0,0.690774
2395.63,0.689994
2400.06,0.689521
2404.52,0.688809
2408.98,0.688079
2415.72,0.686967
2420.23,0.68636
2424.76,0.685457
2429.3,0.684452
2433.87,0.682962
2440.74,0.680812
2445.35,0.679344
2449.97,0.67794
2454.61,0.67598
2459.27,0.674456
2463.94,0.673016
2470.99,0.670322
2475.71,0.668226
2480.45,0.66605
2485.2,0.66396
2489.98,0.662109
2494.77,0.660638
2499.58,0.659132
2504.41,0.657752
2509.26,0.656264
2514.13,0.654838
2519.02,0.652866
2523.92,0.650439
2528.85,0.647264
2533.79,0.643684
2541.24,0.638357
2543.74,0.636842
2548.74,0.633976
2553.76,0.632689
2556.28,0.633006
2558.8,0.633788
2561.33,0.634552
2563.86,0.635812
2566.4,0.638014
2568.95,0.640421
2571.5,0.642154
2574.05,0.643185
2576.61,0.643971
2579.17,0.644611
2581.74,0.644781
2584.31,0.64427
2586.89,0.643857
2589.48,0.643622
2592.07,0.643301
2594.66,0.64233
2597.26,0.641149
2599.87,0.641373
2602.48,0.641313
2605.09,0.640439
2607.71,0.639743
2610.34,0.639358
2612.97,0.639029
2615.61,0.638523
2618.25,0.63753
2620.9,0.636762
2623.55,0.636293
2626.21,0.635671
2628.87,0.634753
2631.54,0.633768
2634.22,0.633016
2636.89,0.632671
2639.58,0.632069
2642.27,0.631046
2644.97,0.630095
2647.67,0.629251
2650.38,0.628266
2653.09,0.627279
2655.81,0.626246
2658.53,0.625464
2661.26,0.624441
2664.0,0.623186
2666.74,0.621557
2669.48,0.620151
2672.23,0.618889
2674.99,0.618051
2677.76,0.616789
2680.52,0.615167
2683.3,0.613849
2686.08,0.611962
2688.87,0.609418
2691.66,0.606696
2694.46,0.603227
2697.26,0.599247
2700.07,0.5959
2702.89,0.59255
2705.71,0.589718
2708.53,0.58704
2711.37,0.58408
2714.21,0.581759
2717.05,0.579714
2719.9,0.577004
2722.76,0.573845
2725.62,0.570455
2728.49,0.567376
2731.37,0.564418
2734.25,0.560555
2737.14,0.55619
2740.03,0.55183
2742.93,0.547279
2745.83,0.543125
2748.75,0.538825
2751.66,0.53429
2754.59,0.529627
2757.52,0.52444
2760.46,0.519929
2763.4,0.515813
2766.35,0.51128
2769.3,0.507437
2772.26,0.503693
2775.23,0.500119
2778.21,0.496466
2781.19,0.492866
2784.18,0.489466
2787.17,0.486094
2790.17,0.482587
2793.18,0.479235
2796.19,0.476126
2799.21,0.472618
2802.24,0.468599
2805.27,0.46402
2808.31,0.459916
2811.35,0.457401
2814.41,0.456434
2817.46,0.455886
2820.53,0.454504
2823.6,0.452603
2826.68,0.450964
2829.77,0.449528
2832.86,0.448658
2835.96,0.448022
2839.07,0.447551
2842.18,0.4467
2845.3,0.445577
2848.43,0.444552
2851.56,0.44328
2854.7,0.441794
2857.85,0.440685
2861.0,0.439261
2864.16,0.437578
2867.33,0.436246
2870.51,0.435093
2873.69,0.433735
2876.88,0.432315
2880.07,0.430797
2883.28,0.429559
2886.49,0.42834
2889.71,0.426829
2892.93,0.425452
2896.17,0.42431
2899.4,0.423171
2902.65,0.421921
2905.91,0.420454
2909.17,0.420387
2912.44,0.41974
2915.71,0.418915
2918.99,0.417964
2922.29,0.417211
2925.58,0.417321
2928.89,0.416789
2932.2,0.416088
2935.52,0.414593
2938.85,0.413948
2942.19,0.41265
2945.53,0.412159
2948.88,0.410358
2952.24,0.4096
2955.61,0.408232
2958.98,0.406932
2962.36,0.405561
2965.75,0.404509
2969.15,0.402628
2972.55,0.401937
2975.97,0.400203
2979.39,0.398726
2986.25,0.395125
2989.7,0.394011
2993.15,0.391974
2996.61,0.390895
3000.08,0.389526
3003.55,0.388201
3007.04,0.38612
3010.53,0.384673
3014.03,0.383428
3017.54,0.381662
3021.06,0.379719
3024.58,0.377813
3028.12,0.37633
3031.66,0.374079
3035.21,0.372699
3038.77,0.370246
3042.33,0.368262
3045.91,0.366369
3049.49,0.364592
3053.08,0.362695
3056.68,0.36021
3060.29,0.358591
3063.91,0.355789
3067.54,0.354103
3071.17,0.352013
3074.81,0.349434
3078.47,0.347423
3082.13,0.345085
3085.79,0.342616
3089.47,0.339828
3093.16,0.337237
3096.85,0.335251
3100.56,0.33283
3104.27,0.330031
3107.99,0.32719
3111.73,0.324696
3115.47,0.321784
3119.21,0.319326
3122.97,0.316083
3126.74,0.313231
3130.52,0.310239
3134.3,0.30774
3138.1,0.304451
3141.9,0.3021
3145.71,0.300074
3149.54,0.297933
3153.37,0.295623
3157.21,0.293976
3161.06,0.29196
3164.92,0.290013
3168.79,0.2881
3172.67,0.285716
3176.55,0.282751
3180.45,0.280443
3184.36,0.277946
3188.27,0.275739
3192.2,0.273261
3196.14,0.270384
3200.08,0.268308
3204.04,0.265742
3208.0,0.2636
3211.98,0.261381
3215.96,0.259447
3219.96,0.257139
3223.96,0.255187
3227.98,0.253626
3232.0,0.252128
3236.04,0.25038
3240.08,0.249037
3244.14,0.247443
3248.2,0.246642
3252.28,0.245374
3256.37,0.244602
3260.46,0.243305
3264.57,0.242393
3268.69,0.241777
3272.81,0.240317
3276.95,0.239203
3281.1,0.237487
3285.26,0.236121
3289.43,0.234059
3293.61,0.232155
3297.8,0.229688
3302.0,0.227396
3306.21,0.224615
3310.43,0.221662
3314.66,0.218536
3318.91,0.215587
3323.16,0.21236
3327.43,0.209428
3331.71,0.206155
3335.99,0.202559
3340.29,0.199242
3344.6,0.196188
3348.92,0.192571
3353.26,0.18823
3357.6,0.182918
3361.96,0.175992
3366.32,0.169364
3370.7,0.162984
3375.09,0.158179
3379.49,0.155093
3383.9,0.154027
3388.32,0.154202
3392.76,0.15459
3397.21,0.15549
3401.66,0.155938
3406.13,0.156857
3410.61,0.157366
3415.11,0.158326
3419.61,0.159615
3424.13,0.161477
3428.66,0.162306
3433.2,0.163356
3437.76,0.164355
3442.32,0.164704
3446.9,0.165439
3451.49,0.166169
3456.09,0.166436
3460.7,0.166489
3465.33,0.165919
3469.97,0.164222
3474.62,0.162258
3479.29,0.159897
3483.96,0.15848
3488.65,0.157807
3493.35,0.156638
3498.07,0.155235
3502.79,0.152243
3507.53,0.148853
3512.29,0.150362
3517.05,0.158717
3521.83,0.170799
3526.62,0.181917
3531.43,0.190738
3536.24,0.196948
3541.08,0.201817
3543.5,0.203482
3545.92,0.205053
3548.35,0.206681
3550.78,0.207634
3553.21,0.208562
3555.65,0.209563
3558.09,0.210094
3560.53,0.210562
3562.98,0.211077
3565.43,0.211745
3567.88,0.212253
3570.34,0.212455
3572.8,0.212381
3575.27,0.212416
3577.73,0.212631
3580.2,0.212634
3582.68,0.212498
3585.16,0.21251
3587.64,0.212618
3590.12,0.212896
3592.61,0.213403
3595.1,0.213727
3597.6,0.213782
3600.09,0.214
3602.6,0.214101
3605.1,0.214049
3607.61,0.214021
3610.12,0.213676
3612.64,0.213415
3615.16,0.213079
3617.68,0.212726
3620.21,0.212342
3622.74,0.211959
3625.27,0.211598
3627.81,0.211068
3630.35,0.210532
3632.89,0.20994
3635.44,0.209207
3637.99,0.208553
3640.54,0.207969
3643.1,0.20729
3645.66,0.206663
3648.23,0.205925
3650.8,0.205108
3653.37,0.204322
3655.95,0.203542
3658.53,0.202791
3661.11,0.202063
3663.7,0.20113
3666.29,0.200329
3668.89,0.19935
3671.48,0.198466
3674.09,0.197467
3676.69,0.196388
3679.3,0.195469
3681.91,0.194364
3684.53,0.193182
3687.15,0.1921
3689.78,0.190917
3692.4,0.189698
3695.04,0.188561
3697.67,0.187505
3700.31,0.186561
3702.95,0.185445
3705.6,0.184292
3708.25,0.183238
3710.91,0.182158
3713.56,0.181102
3716.23,0.180305
3718.89,0.179352
3721.56,0.178242
3724.23,0.177441
3726.91,0.176472
3729.59,0.175337
3732.28,0.174196
3734.97,0.173066
3737.66,0.172065
3740.36,0.171098
3743.06,0.17006
3745.76,0.169178
3748.47,0.168312
3751.18,0.167361
3753.9,0.166332
3756.62,0.165308
3759.34,0.164559
3762.07,0.163528
3764.8,0.16252
3767.54,0.161767
3770.28,0.161096
3773.02,0.160382
3775.77,0.159406
3778.52,0.158434
3781.28,0.157697
3784.04,0.156907
3786.8,0.156198
3789.57,0.155412
3792.34,0.154588
3795.12,0.153782
3797.9,0.153021
3800.69,0.15219
3803.47,0.151326
3806.27,0.150367
3809.06,0.149439
3811.86,0.148279
3814.67,0.147036
3817.48,0.145537
3820.29,0.143895
3823.11,0.142099
3825.93,0.140124
3828.76,0.138084
3831.59,0.136098
3834.42,0.134205
3837.26,0.132619
3840.1,0.13116
3842.95,0.129892
3845.8,0.129139
3848.65,0.128597
3851.51,0.127878
3854.38,0.127194
3857.24,0.126349
3860.12,0.125442
3862.99,0.124826
3865.87,0.124309
3868.76,0.123683
3871.65,0.123416
3874.54,0.123232
3877.44,0.12317
3880.34,0.123049
3883.25,0.12306
3886.16,0.123363
3889.07,0.123536
3891.99,0.123639
3894.92,0.123829
3897.85,0.123848
3900.78,0.12396
3903.72,0.124411
3906.66,0.125134
3909.6,0.125635
3912.55,0.126007
3915.51,0.126062
3918.47,0.125699
3921.43,0.12484
3924.4,0.123614
3927.38,0.121935
3930.35,0.120038
3933.33,0.118313
3936.32,0.116678
3939.31,0.115334
3942.31,0.11431
3945.31,0.113286
3948.31,0.112014
3951.32,0.110764
3954.34,0.109497
3957.35,0.107834
3960.38,0.105719
3963.41,0.103457
3966.44,0.101279
3969.48,0.099063
3972.52,0.096514
3975.56,0.093708
3978.61,0.090736
3981.67,0.087899
3984.73,0.085215
3987.8,0.083051
3990.87,0.08194
3993.94,0.081639
3997.02,0.081825
4000.1,0.081807
4003.19,0.080851
4006.29,0.078842
4009.39,0.076306
4012.49,0.074111
4015.6,0.073126
4018.71,0.073865
4021.83,0.07675
4024.95,0.082289
4028.08,0.089969
4031.21,0.098239
4034.35,0.106424
4037.49,0.11366
4040.64,0.11931
4043.79,0.123641
4046.94,0.127038
4050.11,0.129856
4053.27,0.132074
4056.44,0.13401
4059.62,0.136006
4062.8,0.137666
4065.99,0.13932
4069.18,0.140918
4072.38,0.142574
4075.58,0.143909
4078.78,0.144976
4082.0,0.146056
4085.21,0.146991
4088.43,0.147595
4091.66,0.148249
4094.89,0.149067
4098.13,0.149712
4101.37,0.150311
4104.62,0.150952
4107.87,0.151382
4111.13,0.151889
4114.39,0.152371
4117.66,0.152693
4120.93,0.153088
4124.21,0.153674
4127.5,0.15431
4130.79,0.154845
4134.08,0.155238
4137.38,0.155598
4140.68,0.156078
4143.99,0.156549
4147.31,0.156779
4150.63,0.157162
4153.95,0.157734
4157.29,0.158182
4160.62,0.158533
4163.96,0.158933
4167.31,0.159263
4170.66,0.159512
4174.02,0.159835
4177.39,0.160253
4180.75,0.16068
4184.13,0.161059
4187.51,0.161466
4190.89,0.1619
4194.28,0.162277
4197.68,0.16272
4201.08,0.163214
4204.49,0.163579
4207.9,0.163733
4211.32,0.163939
4214.74,0.164151
4218.17,0.164426
4221.61,0.164964
4225.05,0.165432
4228.5,0.165777
4231.95,0.166066
4235.4,0.166353
4238.87,0.166932
4242.34,0.167393
4245.81,0.167678
4249.29,0.168154
4252.78,0.16867
4256.27,0.169182
4259.77,0.169566
4263.27,0.169892
4266.78,0.170287
4270.29,0.170604
4273.81,0.170781
4277.34,0.171121
4280.87,0.171778
4284.41,0.172177
4287.95,0.172568
4291.5,0.172852
4295.06,0.173167
4298.62,0.173514
4302.19,0.17384
4305.76,0.174366
4309.34,0.174912
4312.92,0.175379
4316.52,0.175946
4320.11,0.176398
4323.72,0.176894
4327.32,0.177273
4330.94,0.177567
4334.56,0.177944
4338.19,0.178275
4341.82,0.178422
4345.46,0.17861
4349.11,0.178817
4352.76,0.178931
4356.42,0.179104
4360.08,0.179345
4363.75,0.179301
4367.43,0.179391
4371.11,0.179781
4374.8,0.180231
4378.49,0.180617
4382.19,0.180893
4385.9,0.181088
4389.61,0.181256
4393.33,0.181448
4397.06,0.1818
4400.79,0.182275
4404.53,0.182698
4408.28,0.183102
4412.03,0.183391
4415.79,0.183678
4419.55,0.18411
4423.32,0.184446
4427.1,0.184742
4430.88,0.184824
4434.68,0.185072
4438.47,0.185389
4442.28,0.185782
4446.08,0.186159
4449.9,0.186359
4453.72,0.186398
4457.55,0.186609
4461.39,0.186829
4465.23,0.186928
4469.08,0.187002
4472.94,0.187054
4476.8,0.187091
4480.67,0.187126
4484.55,0.187093
4488.43,0.187231
4492.32,0.187284
4496.21,0.187259
4500.12,0.187227
4504.03,0.187286
4507.94,0.187319
4511.87,0.187401
4515.8,0.187431
4519.73,0.187415
4523.68,0.187314
4527.63,0.187284
4531.59,0.187174
4535.55,0.18722
4539.52,0.187273
4543.5,0.187342
4547.49,0.187335
4551.48,0.187257
4555.48,0.186946
4559.49,0.186715
4563.5,0.186678
4567.52,0.186712
4571.55,0.186517
4575.58,0.186434
4579.63,0.186276
4583.67,0.18609
4587.73,0.185823
4591.79,0.185706
4595.86,0.185451
4599.94,0.184976
4604.03,0.184416
4608.12,0.183906
4612.22,0.183573
4616.33,0.183277
4620.44,0.18273
4624.56,0.182239
4628.69,0.18186
4632.83,0.18155
4636.97,0.18098
4641.12,0.180234
4645.28,0.17948
4649.45,0.178814
4653.62,0.178279
4657.8,0.177661
4661.99,0.176883
4666.19,0.176102
4670.39,0.175335
4674.6,0.174648
4678.82,0.173755
4683.05,0.172951
4687.28,0.172012
4691.52,0.171123
4695.77,0.170413
4700.03,0.169763
4704.3,0.169019
4708.57,0.168363
4712.85,0.1676
4717.14,0.166865
4721.43,0.166158
4725.74,0.165483
4730.05,0.164883
4734.37,0.164486
4738.7,0.16436
4743.03,0.164369
4747.38,0.164438
4751.73,0.164801
4756.09,0.165253
4760.45,0.165487
4764.83,0.165294
4769.21,0.164906
4773.6,0.164559
4778.0,0.164098
4782.41,0.163439
4786.83,0.163092
4791.25,0.162504
4795.68,0.161799
4800.13,0.161101
4804.57,0.160465
4809.03,0.159716
4813.5,0.158963
4817.97,0.158136
4822.45,0.157277
4826.94,0.156379
4831.44,0.155385
4835.95,0.154404
4840.46,0.15354
4844.99,0.152484
4849.52,0.15145
4854.06,0.150341
4858.61,0.149165
4863.17,0.148199
4867.73,0.147298
4872.31,0.146258
4876.89,0.145319
4881.48,0.144444
4886.08,0.143534
4890.69,0.142655
4895.31,0.141826
4899.94,0.140886
4904.57,0.139885
4909.22,0.138911
4913.87,0.138133
4918.53,0.137361
4923.21,0.136295
4927.88,0.135188
4932.57,0.134396
4937.27,0.133578
4941.98,0.132736
4946.69,0.131943
4951.42,0.131447
4956.15,0.13099
4960.9,0.130515
4965.65,0.129853
4970.41,0.129247
4975.18,0.128707
4979.96,0.128165
4984.75,0.127557
4989.54,0.126957
4994.35,0.126314
4999.17,0.125811
5003.99,0.125113
5008.83,0.124321
5013.67,0.123671
5018.52,0.123166
5023.39,0.122537
5028.26,0.121933
5033.14,0.121301
5038.03,0.120667
5042.93,0.119886
5047.84,0.119319
5052.76,0.118862
5057.69,0.118139
5062.63,0.117335
5067.58,0.116627
5072.54,0.116026
5077.51,0.115447
5082.49,0.114691
5087.47,0.113885
5092.47,0.113084
5097.48,0.112335
5102.5,0.111715
5107.52,0.111088
5112.56,0.110401
5117.61,0.109777
5122.66,0.109159
5127.73,0.108677
5132.81,0.10808
5137.89,0.107448
5142.99,0.106904
5148.1,0.106334
5153.22,0.10556
5158.34,0.104878
5163.48,0.104389
5168.63,0.103923
5173.79,0.103252
5178.96,0.102579
5184.13,0.101916
5189.32,0.101491
5194.52,0.100974
5199.73,0.100345
5204.96,0.099738
5210.19,0.09924
5215.43,0.098599
5220.68,0.098032
5225.94,0.097488
5231.22,0.096943
5236.5,0.096388
5241.79,0.095768
5247.1,0.095228
5252.42,0.094874
5257.74,0.094328
5263.08,0.093712
5268.43,0.093163
5273.79,0.092552
5279.16,0.091923
5284.54,0.091457
5289.93,0.090963
5295.34,0.0904
5300.75,0.089909
5306.18,0.089477
5311.61,0.089032
5317.06,0.088575
5322.52,0.087959
5327.99,0.087463
5333.47,0.086939
5338.96,0.086365
5344.47,0.085897
5349.98,0.085559
5355.51,0.085059
5361.05,0.084572
5366.6,0.08414
5372.16,0.083655
5377.73,0.08295
5383.32,0.082436
5388.91,0.081919
5394.52,0.081485
5400.14,0.081046
5405.77,0.080596
5411.41,0.080132
5417.07,0.079563
5422.74,0.078952
5428.41,0.078348
5434.1,0.077691
5439.81,0.077083
5445.52,0.076497
5451.25,0.075987
5456.98,0.075408
5462.73,0.0748
5468.5,0.074157
5474.27,0.07364
5480.06,0.07299
5485.86,0.07226
5491.67,0.071529
5497.49,0.07093
5503.33,0.070218
5509.18,0.069481
5515.04,0.068817
5520.91,0.06819
5526.8,0.067379
5532.69,0.066452
5538.61,0.065678
5544.53,0.064874
5550.47,0.063767
5556.41,0.062662
5562.38,0.061645
5568.35,0.060437
5574.34,0.058776
5580.34,0.056962
5586.35,0.054654
5592.38,0.051545
5598.42,0.047025
5604.47,0.041233
5610.54,0.035462
5616.61,0.030935
5622.71,0.027738
5628.81,0.025694
5634.93,0.024466
5641.06,0.024312
5647.21,0.026353
5653.36,0.031149
5659.54,0.037274
5665.72,0.042315
5671.92,0.045043
5678.13,0.046359
5684.36,0.046731
5690.6,0.046393
5696.85,0.045704
5703.12,0.044859
5709.4,0.04375
5715.69,0.042333
5722.0,0.04076
5728.33,0.039159
5734.66,0.037528
5741.01,0.035905
5747.38,0.034334
5753.76,0.032972
5760.15,0.031872
5766.56,0.030887
5772.98,0.030097
5779.41,0.029711
5785.86,0.029477
5792.33,0.029206
5798.81,0.029052
5805.3,0.02918
5811.81,0.029396
5818.33,0.029624
5824.87,0.029851
5831.42,0.030099
5837.99,0.030173
5844.57,0.030012
5851.17,0.029899
5857.78,0.029782
5864.41,0.029539
5871.05,0.029279
5877.7,0.029045
5884.38,0.028774
5891.06,0.028425
5897.76,0.028161
5904.48,0.028016
5911.21,0.027881
5917.96,0.027805
5924.73,0.027814
5931.5,0.027869
5938.3,0.027881
5945.11,0.027784
5951.93,0.027816
5958.78,0.027965
5965.63,0.028062
5972.51,0.028048
5979.39,0.02811
5986.3,0.028204
5993.22,0.028112
6000.16,0.028009
6007.11,0.027959
6014.08,0.028016
6021.06,0.028168
6028.06,0.028383
6035.08,0.028659
6042.12,0.028994
6049.17,0.029428
6056.23,0.030007
6063.32,0.030836
6070.42,0.031674
6077.53,0.032508
6084.67,0.033466
6091.82,0.034437
6098.98,0.03525
6106.17,0.0361
6113.37,0.036947
6120.58,0.037618
6127.82,0.038227
6135.07,0.038741
6142.34,0.039267
6149.63,0.0396
6156.93,0.039912
6164.25,0.040172
6171.59,0.040255
6178.95,0.04022
6186.32,0.040284
6193.71,0.040098
6201.12,0.039827
6208.54,0.039609
6215.99,0.039568
6223.45,0.039444
6230.93,0.039083
6238.43,0.038773
6245.95,0.038567
6253.48,0.03827
6261.03,0.037933
6268.6,0.037572
6276.19,0.037198
6283.8,0.03686
6291.43,0.036635
6299.07,0.036226
6306.73,0.035868
6314.42,0.035567
6322.12,0.035278
6329.84,0.035064
6337.57,0.035055
6345.33,0.035112
6353.11,0.035174
6360.9,0.035347
6368.72,0.035737
6376.55,0.036093
6384.4,0.036502
6392.27,0.03709
6400.17,0.037772
6408.08,0.038465
6416.01,0.039363
6423.96,0.040581
6431.93,0.042005
6439.92,0.043683
6447.93,0.04572
6455.96,0.047803
6464.01,0.050125
6472.08,0.052401
6480.17,0.054248
6488.28,0.055343
6496.41,0.055628
6504.56,0.054691
6512.73,0.053352
6520.92,0.052002
6529.14,0.050509
6537.37,0.049393
6545.63,0.048479
6553.9,0.047682
6562.2,0.047029
6570.51,0.046331
6578.85,0.045684
6587.21,0.045137
6595.59,0.044581
6603.99,0.044067
6612.42,0.043614
6620.86,0.043068
6629.33,0.0424
6637.82,0.041745
6646.33,0.041081
6654.86,0.040512
6663.41,0.039873
6671.99,0.039253
6680.59,0.038679
6689.21,0.038093
6697.85,0.037558
6706.51,0.037051
6715.2,0.036564
6723.91,0.036029
6732.64,0.035402
6741.4,0.034963
6750.18,0.034626
6758.98,0.034299
6767.8,0.034006
6776.65,0.033716
6785.52,0.033484
6794.41,0.03322
6803.33,0.033029
6812.27,0.032965
6821.23,0.03291
6830.22,0.032876
6839.23,0.032706
6848.26,0.032694
6857.32,0.032807
6866.4,0.032827
6875.51,0.032857
6884.64,0.033112
6893.8,0.033245
6902.98,0.033452
6912.18,0.03364
6921.41,0.033865
6930.66,0.034421
6939.94,0.035262
6949.24,0.036208
6958.57,0.03728
6967.92,0.038601
6977.3,0.039926
6986.7,0.041529
6996.13,0.043226
7005.59,0.044147
7015.07,0.043773
7024.57,0.042643
7034.1,0.041547
7043.66,0.040562
7053.25,0.038879
7062.85,0.037035
7072.49,0.035634
7082.15,0.034977
7091.84,0.035248
7101.55,0.035944
7111.3,0.036732
7121.06,0.037545
7130.86,0.038188
7140.68,0.038351
7150.53,0.038087
7160.41,0.037731
7170.31,0.037696
7180.24,0.03816
7190.2,0.038863
7200.19,0.039827
7210.2,0.040989
7220.24,0.042016
7230.31,0.042845
7240.41,0.043534
7250.54,0.043901
7260.69,0.044214
7270.88,0.044659
7281.09,0.044953
7291.33,0.045199
7301.6,0.045495
7311.9,0.045711
7322.22,0.045959
7332.58,0.046164
7342.97,0.046552
7353.38,0.04688
7363.83,0.047078
7374.3,0.047379
7384.81,0.047728
7395.34,0.048102
7405.91,0.048474
7416.5,0.048846
7427.13,0.049308
7437.78,0.049682
7448.47,0.050059
7459.19,0.050506
7469.94,0.050876
7480.71,0.051239
7491.52,0.051586
7502.37,0.05191
7513.24,0.052305
7524.14,0.052691
7535.08,0.053141
7546.05,0.053526
7557.05,0.053928
7568.08,0.054252
7579.15,0.054627
7590.24,0.055084
7601.37,0.055559
7612.53,0.055782
7623.73,0.055878
7634.96,0.056248
7646.22,0.056705
7657.51,0.056971
7668.84,0.057185
7680.2,0.057488
7691.59,0.057686
7703.02,0.057764
7714.49,0.057938
7725.98,0.058136
7737.52,0.058269
7749.08,0.058434
7760.68,0.058561
7772.32,0.058714
7783.99,0.058995
7795.69,0.059224
7807.43,0.059502
7819.21,0.059704
7831.02,0.059842
7842.87,0.059978
7854.75,0.060095
7866.67,0.060235
7878.62,0.060464
7890.62,0.060754
7902.64,0.06116
7914.71,0.061512
7926.81,0.061767
7938.95,0.06201
7951.13,0.062352
7963.34,0.062557
7975.59,0.062782
7987.88,0.063039
8000.21,0.063315
8012.57,0.063489
8024.98,0.063491
8037.42,0.063379
8049.9,0.063372
8062.42,0.063526
8074.98,0.06365
8087.57,0.063781
8100.21,0.064024
8112.89,0.064254
8125.6,0.064575
8138.36,0.064874
8151.16,0.065211
8163.99,0.065526
8176.87,0.065627
8189.79,0.065701
8202.75,0.065937
8215.75,0.066119
8228.79,0.066201
8241.87,0.066243
8254.99,0.066266
8268.16,0.066084
8281.37,0.065976
8294.62,0.065923
8307.91,0.065556
8321.24,0.064993
8334.62,0.064504
8348.04,0.063944
8361.51,0.063168
8375.02,0.062361
8388.57,0.061629
8402.16,0.060928
8415.8,0.060347
8429.49,0.059964
8443.22,0.059654
8456.99,0.059208
8470.81,0.058797
8484.67,0.058301
8498.58,0.057706
8512.54,0.057047
8526.54,0.056576
8540.58,0.055956
8554.68,0.055497
8568.82,0.055175
8583.0,0.054847
8597.24,0.054482
8611.52,0.054055
8625.85,0.053777
8640.23,0.053549
8654.65,0.053458
8669.12,0.053476
8683.64,0.053368
8698.21,0.053221
8712.83,0.053026
8727.5,0.05289
8742.22,0.052759
8756.99,0.052805
8771.8,0.052975
8786.67,0.053297
8801.59,0.053566
8816.56,0.053761
8831.58,0.053933
8846.65,0.054082
8861.77,0.054273
8876.94,0.054434
8892.17,0.054587
8907.45,0.054838
8922.78,0.055109
8938.16,0.055366
8953.6,0.055508
8969.09,0.055763
8984.64,0.056115
9000.23,0.05642
9015.89,0.056705
9031.59,0.057196
9047.36,0.057853
9063.17,0.058214
9079.05,0.058446
9094.97,0.058914
9110.96,0.05924
9127.0,0.059341
9143.1,0.059461
9159.25,0.059674
9175.46,0.059592
9191.73,0.05938
9208.06,0.059229
9224.44,0.058992
9240.88,0.058742
9257.38,0.058163
9273.94,0.057525
9290.56,0.057013
9307.24,0.056939
9323.98,0.05719
9340.78,0.05687
9357.64,0.056427
9374.57,0.056135
9391.55,0.055635
9408.59,0.055072
9425.7,0.05484
9442.87,0.054576
9460.1,0.054209
9477.4,0.053678
9494.75,0.053051
9512.17,0.052534
9529.66,0.052176
9547.21,0.051776
9564.83,0.051574
9582.5,0.05174
9600.25,0.052498
9618.06,0.053712
9635.94,0.05433
9653.88,0.053717
9671.89,0.052422
9689.97,0.051519
9708.12,0.052004
9726.33,0.05292
9744.62,0.053317
9762.97,0.053021
9781.39,0.051953
9799.88,0.050219
9818.44,0.048214
9837.07,0.047174
9855.77,0.047914
9874.54,0.049781
9893.39,0.051655
9912.3,0.052812
9931.29,0.053421
9950.36,0.053857
9969.49,0.054337
9988.7,0.05464
10007.98,0.054737
10027.34,0.054792
10046.77,0.054955
10066.28,0.055237
10085.87,0.055467
10105.53,0.055637
10125.26,0.055837
10145.08,0.056055
10164.97,0.056434
10184.94,0.056755
10204.99,0.056941
10225.12,0.057153
10245.33,0.057447
10265.61,0.057768
10285.98,0.057874
10306.43,0.05806
10326.96,0.058356
10347.57,0.058744
10368.27,0.059194
10389.05,0.059718
10409.91,0.059966
10430.86,0.060143
10451.88,0.060469
10473.0,0.0608
10494.2,0.061289
10515.49,0.061645
10536.86,0.061847
10558.32,0.062093
10579.87,0.06232
10601.5,0.062554
10623.23,0.062929
10645.04,0.063312
10666.94,0.063471
10688.94,0.063831
10711.02,0.064123
10733.2,0.064247
10755.47,0.064415
10777.83,0.064663
10800.28,0.064695
10822.83,0.064729
10845.47,0.064748
10868.21,0.06483
10891.04,0.064934
10913.97,0.064823
10936.99,0.064692
10960.12,0.064357
10983.34,0.063843
11006.66,0.063282
11030.07,0.06252
11053.59,0.061695
11077.21,0.0606
11100.93,0.059061
11124.75,0.05713
11148.68,0.0547
11172.71,0.051515
11196.84,0.047232
11221.07,0.041492
11245.41,0.034006
11269.86,0.025171
11294.41,0.018171
11319.07,0.015991
11343.84,0.017178
11368.72,0.019204
11393.7,0.021925
11418.8,0.026916
11444.01,0.0365
11469.33,0.048522
11494.76,0.058682
11520.3,0.065813
11545.96,0.070569
11571.73,0.073369
11597.62,0.074809
11623.62,0.075558
11649.74,0.075548
11675.98,0.073851
11702.34,0.068337
11728.81,0.061971
11755.41,0.061728
11782.13,0.062042
11808.96,0.056935
11835.92,0.051216
11863.01,0.049163
11890.22,0.048853
11917.55,0.047395
11945.01,0.046554
11972.6,0.049305
12000.31,0.055008
12028.16,0.063953
12056.13,0.075119
12084.23,0.08448
12112.46,0.090543
12140.83,0.093728
12169.33,0.095104
12197.96,0.096039
12226.73,0.09757
12255.64,0.099072
12284.68,0.100772
12313.86,0.102471
12343.18,0.10364
12372.64,0.104545
12402.24,0.105188
12431.98,0.105693
12461.86,0.106249
12491.89,0.106506
12522.07,0.106702
12552.38,0.107115
12582.85,0.107634
12613.47,0.108282
12644.23,0.108865
12675.15,0.109338
12706.21,0.109772
12737.43,0.109988
12768.81,0.110266
12800.33,0.110583
12832.02,0.111104
12863.86,0.111821
12895.86,0.112599
12928.02,0.113084
12960.34,0.113385
12992.82,0.113534
13025.46,0.113959
13058.27,0.114845
13091.25,0.115725
13124.39,0.116595
13157.7,0.118095
13191.18,0.119599
13224.83,0.120784
13258.66,0.121662
13292.65,0.122732
13326.83,0.123699
13361.17,0.124771
13395.7,0.126174
13430.4,0.127789
13465.29,0.129553
13500.35,0.131266
13535.6,0.132596
13571.03,0.133551
13606.65,0.134518
13642.46,0.135602
13678.46,0.136015
13714.64,0.135882
13751.02,0.1352
13787.59,0.13376
13824.36,0.131406
13861.32,0.128113
13898.49,0.12374
13935.85,0.118467
13973.41,0.111752
14011.17,0.103829
14049.15,0.095106
14087.32,0.085054
14125.71,0.073353
14164.3,0.059847
14203.11,0.046127
14242.13,0.03409
14281.36,0.027127
14320.81,0.030788
14360.49,0.034819
14400.38,0.032037
14440.49,0.035197
14480.82,0.046935
14521.39,0.054078
14562.18,0.053049
14603.2,0.048242
14644.45,0.045015
14685.93,0.043998
14727.66,0.044048
14769.62,0.045155
14811.81,0.047043
14854.25,0.048917
14896.94,0.05019
14939.87,0.050663
14983.05,0.051016
15026.48,0.05208
15070.16,0.054718
15114.1,0.05829
15158.29,0.060439
15202.74,0.060095
15247.46,0.058659
15292.43,0.057908
15337.68,0.058166
15383.19,0.058177
15428.97,0.057208
15475.03,0.055885
15521.36,0.054964
15567.97,0.054769
15614.87,0.054868
15662.04,0.055038
15709.5,0.055371
15757.25,0.055619
15805.29,0.055226
15853.62,0.054838
15902.26,0.054509
15951.19,0.054565
16000.42,0.054712
16049.95,0.054356
16099.8,0.054165
16149.95,0.0543
16200.42,0.054831
16251.21,0.05603
16302.31,0.05749
16353.74,0.059252
16405.49,0.060972
16457.57,0.061923
16509.98,0.062437
16562.73,0.062903
16615.82,0.063468
16669.24,0.063854
16723.02,0.064033
16777.14,0.064123
16831.61,0.064548
16886.43,0.065115
16941.62,0.06548
16997.16,0.0659
17053.08,0.066348
17109.36,0.066541
17166.01,0.067017
17223.04,0.067375
17280.45,0.067758
17338.24,0.068206
17396.43,0.068206
17455.0,0.068181
17513.97,0.068232
17573.34,0.068335
17633.11,0.068679
17693.29,0.068948
17753.89,0.069185
17814.9,0.069341
17876.33,0.069543
17938.18,0.069708
18000.47,0.069747
18063.19,0.069648
18126.35,0.069883
18189.95,0.070379
18254.0,0.070418
18318.5,0.069961
18383.46,0.069713
18448.88,0.070007
18514.77,0.070243
18581.13,0.070158
18647.97,0.070168
18715.29,0.07023
18783.1,0.069876
18851.4,0.06983
18920.2,0.07028
18989.51,0.070411
19059.32,0.069894
19129.65,0.06907
19200.5,0.068514
19271.88,0.068323
19343.79,0.068149
19416.24,0.067836
19489.23,0.067033
19562.77,0.066344
19636.88,0.06568
19711.54,0.065822
19786.78,0.066167
19862.59,0.065979
19938.98,0.065163
20015.96,0.064247
20093.55,0.063689
20171.73,0.063939
20250.53,0.063799
20329.94,0.062917
20409.98,0.06227
20490.65,0.061395
20571.96,0.060111
20653.92,0.058708
20736.54,0.058494
20819.82,0.058547
20903.77,0.057506
20988.4,0.056824
21073.72,0.05625
21159.73,0.055352
21246.46,0.055658
21333.89,0.05526
21422.04,0.053226
21510.93,0.053001
21600.56,0.052955
21690.94,0.051526
21782.08,0.050748
21873.99,0.050585
21966.67,0.05004
22060.15,0.0488
22154.42,0.047268
22249.51,0.046481
22345.41,0.045495
22442.14,0.044409
22539.72,0.043173
22638.14,0.04256
22737.43,0.042262
22837.6,0.041784
22938.65,0.040415
23040.6,0.03946
23143.46,0.038477
23247.24,0.038397
23351.96,0.038321
23457.63,0.03667
23564.25,0.034968
23671.85,0.033335
23780.44,0.032033
23890.02,0.031629
24000.63,0.03026
24112.26,0.028537
24224.93,0.02704
24338.66,0.026544
24453.47,0.027929
24569.36,0.027396
24686.36,0.024989
24804.47,0.023253
24923.73,0.022883
25044.13,0.023653
25165.71,0.021282
25288.46,0.018079
25412.43,0.018398
25537.61,0.018837
25664.04,0.018129
25791.72,0.017911
25920.68,0.016981
