Database of Origin,University of Winnipeg Spectrophotometer Facility
Sample Description,8. Sulfates: RELAB + Nicolet spectra / Spectra all made consistently merged: Jan. / 10 / 2005
Date Added,2016-07-15 22:05:54.720442

Data ID,RPN_SUL_06          
Sample ID,SPT101
Mineral Name,Mascagnite
Grain Size,45-90
Viewing Geometry,30 / 0 | 30
Resolution,5 / 1.3-129
Material Class,Sulfate

Wavelength
305.0,0.044644
310.0,0.041918
315.0,0.041871
320.0,0.042088
325.0,0.044021
330.0,0.046738
335.0,0.051109
340.0,0.056828
345.0,0.064609
350.0,0.074271
355.0,0.085604
360.0,0.100344
365.0,0.116969
370.0,0.136414
375.0,0.158068
380.0,0.182358
385.0,0.207675
390.0,0.231604
395.0,0.255911
400.0,0.276665
405.0,0.293762
410.0,0.314064
415.0,0.334724
420.0,0.352585
425.0,0.364426
430.0,0.372094
435.0,0.377958
440.0,0.383505
445.0,0.387314
450.0,0.389984
455.0,0.39155
460.0,0.39226
465.0,0.397577
470.0,0.40581
475.0,0.417836
480.0,0.431477
485.0,0.445756
490.0,0.460653
495.0,0.475623
500.0,0.487637
505.0,0.499988
510.0,0.510508
515.0,0.5223
520.0,0.53027
525.0,0.537459
530.0,0.545331
535.0,0.551418
540.0,0.556946
545.0,0.565574
550.0,0.568942
555.0,0.574961
560.0,0.579677
565.0,0.587554
570.0,0.592677
575.0,0.597183
580.0,0.604122
585.0,0.610952
590.0,0.614057
595.0,0.619946
600.0,0.625866
605.0,0.62952
610.0,0.633397
615.0,0.639932
620.0,0.645448
625.0,0.651495
630.0,0.655147
635.0,0.662158
640.0,0.666297
645.0,0.670463
650.0,0.675893
655.0,0.679643
660.0,0.685352
665.0,0.690226
670.0,0.694623
675.0,0.701868
680.0,0.705311
685.0,0.709963
690.0,0.714206
695.0,0.716299
700.0,0.719498
705.0,0.724511
710.0,0.728744
715.0,0.731114
720.0,0.735735
725.0,0.736214
730.0,0.736654
735.0,0.740883
740.0,0.742403
745.0,0.746653
750.0,0.747535
755.0,0.74935
760.0,0.750979
765.0,0.752361
770.0,0.755015
775.0,0.755453
780.0,0.756424
785.0,0.757541
790.0,0.75998
795.0,0.759385
800.0,0.759274
805.0,0.760073
810.0,0.760565
815.0,0.761275
820.0,0.762438
825.0,0.763594
830.0,0.7643
835.0,0.765348
840.0,0.765846
845.0,0.76723
850.0,0.767552
855.0,0.768629
860.0,0.769096
865.0,0.770676
870.0,0.771482
875.0,0.772948
880.0,0.773136
885.0,0.776323
890.0,0.775382
895.0,0.778225
900.0,0.780248
905.0,0.784939
910.0,0.780995
915.0,0.784263
920.0,0.785969
925.0,0.789447
930.0,0.790743
935.0,0.79439
940.0,0.794836
945.0,0.798083
950.0,0.800539
955.0,0.803241
960.0,0.806355
965.0,0.807062
970.0,0.811144
975.0,0.814288
980.0,0.813286
985.0,0.814686
990.0,0.815139
995.0,0.816353
1000.0,0.816187
1005.0,0.816393
1010.0,0.818053
1015.0,0.815838
1020.0,0.811178
1025.0,0.811062
1030.0,0.807064
1035.0,0.803195
1040.0,0.799015
1045.0,0.792972
1050.0,0.792073
1055.0,0.787846
1060.0,0.789064
1065.0,0.788085
1070.0,0.790017
1075.0,0.79107
1080.0,0.795497
1085.0,0.800172
1090.0,0.80376
1095.0,0.805888
1100.0,0.811102
1105.0,0.813496
1110.0,0.815225
1115.0,0.819941
1120.0,0.820991
1125.0,0.825291
1130.0,0.826225
1135.0,0.826155
1140.0,0.82751
1145.0,0.827402
1150.0,0.827338
1155.0,0.826847
1160.0,0.826249
1165.0,0.823281
1170.0,0.821637
1175.0,0.822476
1180.0,0.816814
1185.0,0.815465
1190.0,0.810364
1195.0,0.807934
1200.0,0.801798
1205.0,0.789808
1210.0,0.772005
1215.0,0.764373
1220.0,0.748085
1225.0,0.737102
1230.0,0.722464
1235.0,0.715296
1240.0,0.705423
1245.0,0.69859
1250.0,0.691485
1255.0,0.679147
1260.0,0.670246
1265.0,0.667181
1270.0,0.664809
1275.0,0.662313
1280.0,0.664923
1285.0,0.662169
1290.0,0.666051
1295.0,0.666138
1300.0,0.669591
1305.0,0.668355
1310.0,0.672546
1315.0,0.674528
1320.0,0.678277
1325.0,0.682635
1330.0,0.686431
1335.0,0.690083
1340.0,0.692308
1345.0,0.696635
1350.0,0.700163
1355.0,0.699156
1360.0,0.702889
1365.0,0.705339
1370.0,0.706976
1375.0,0.712229
1380.0,0.708358
1385.0,0.715466
1390.0,0.717445
1395.0,0.711155
1400.0,0.713834
1405.0,0.714936
1410.0,0.714262
1415.0,0.71319
1420.0,0.708522
1425.0,0.704889
1430.0,0.697398
1435.0,0.693688
1440.0,0.686422
1445.0,0.677326
1450.0,0.666358
1455.0,0.657498
1460.0,0.646342
1465.0,0.634539
1470.0,0.623403
1475.0,0.609565
1480.0,0.597438
1485.0,0.580827
1490.0,0.566939
1495.0,0.5504
1500.0,0.535944
1505.0,0.518562
1510.0,0.503406
1515.0,0.480256
1520.0,0.458953
1525.0,0.437384
1530.0,0.415009
1535.0,0.394779
1540.0,0.375874
1545.0,0.356153
1550.0,0.339337
1555.0,0.321494
1560.0,0.312266
1565.0,0.300221
1570.0,0.29442
1575.0,0.294077
1580.0,0.295987
1585.0,0.300096
1590.0,0.310284
1595.0,0.31786
1600.0,0.32831
1605.0,0.339747
1610.0,0.344783
1615.0,0.353324
1620.0,0.361218
1625.0,0.364611
1630.0,0.369429
1635.0,0.373024
1640.0,0.373762
1645.0,0.378252
1650.0,0.383294
1655.0,0.389366
1660.0,0.397916
1665.0,0.406467
1670.0,0.415028
1675.0,0.421656
1680.0,0.428298
1685.0,0.433959
1690.0,0.440143
1695.0,0.445346
1700.0,0.450833
1705.0,0.454611
1710.0,0.458282
1715.0,0.46034
1720.0,0.465573
1725.0,0.466478
1730.0,0.469568
1735.0,0.467388
1740.0,0.470809
1745.0,0.471022
1750.0,0.47059
1755.0,0.471719
1760.0,0.472888
1765.0,0.471253
1770.0,0.47017
1775.0,0.469728
1780.0,0.468008
1785.0,0.4676
1790.0,0.465659
1795.0,0.463667
1800.0,0.461544
1805.0,0.460203
1810.0,0.457327
1815.0,0.45595
1820.0,0.453465
1825.0,0.449153
1830.0,0.44699
1835.0,0.442193
1840.0,0.438855
1845.0,0.434431
1850.0,0.432398
1855.0,0.424661
1860.0,0.420314
1865.0,0.413865
1870.0,0.40549
1875.0,0.401401
1880.0,0.393408
1885.0,0.383889
1890.0,0.376071
1895.0,0.366981
1900.0,0.35663
1905.0,0.347021
1910.0,0.337815
1915.0,0.328279
1920.0,0.31677
1925.0,0.306818
1930.0,0.295397
1935.0,0.286097
1940.0,0.274879
1945.0,0.262253
1950.0,0.250465
1955.0,0.237114
1960.0,0.224103
1965.0,0.209938
1970.0,0.194431
1975.0,0.181249
1980.0,0.164716
1985.0,0.148038
1990.0,0.131759
1995.0,0.115579
2000.0,0.100463
2005.0,0.088449
2010.0,0.079566
2015.0,0.07322
2020.0,0.069112
2025.0,0.066058
2030.0,0.063525
2035.0,0.061831
2040.0,0.060122
2045.0,0.058704
2050.0,0.058152
2055.0,0.057784
2060.0,0.057534
2065.0,0.057204
2070.0,0.056226
2075.0,0.055146
2080.0,0.053033
2085.0,0.051
2090.0,0.048405
2095.0,0.044368
2100.0,0.042772
2105.0,0.039792
2110.0,0.037206
2115.0,0.034471
2120.0,0.032391
2125.0,0.030727
2130.0,0.029345
2135.0,0.028924
2140.0,0.0287
2145.0,0.028564
2150.0,0.028675
2155.0,0.029446
2160.0,0.030092
2165.0,0.031279
2170.0,0.032716
2175.0,0.03497
2180.0,0.037766
2185.0,0.040448
2190.0,0.043784
2195.0,0.046875
2200.0,0.05092
2205.0,0.05412
2210.0,0.058048
2215.0,0.061033
2220.0,0.064849
2225.0,0.068218
2230.0,0.071579
2235.0,0.075726
2240.0,0.078386
2245.0,0.082689
2250.0,0.086237
2255.0,0.09067
2260.0,0.094995
2265.0,0.099336
2270.0,0.103439
2275.0,0.107692
2280.0,0.112011
2285.0,0.116459
2290.0,0.120599
2295.0,0.125237
2300.0,0.129336
2305.0,0.133174
2310.0,0.137013
2315.0,0.140134
2320.0,0.143515
2325.0,0.147888
2330.0,0.151656
2335.0,0.155474
2340.0,0.16106
2345.0,0.166349
2350.0,0.171365
2355.0,0.177047
2360.0,0.182632
2365.0,0.188082
2370.0,0.192711
2375.0,0.197033
2380.0,0.202814
2385.0,0.207682
2390.0,0.21414
2395.0,0.219142
2400.0,0.224928
2405.0,0.23145
2410.0,0.236714
2415.0,0.241568
2420.0,0.247921
2425.0,0.253069
2430.0,0.255947
2435.0,0.260648
2440.0,0.264204
2445.0,0.265895
2450.0,0.267287
2455.0,0.268233
2460.0,0.267918
2465.0,0.26719
2470.0,0.267616
2475.0,0.265505
2480.0,0.264406
2485.0,0.261182
2490.0,0.25938
2495.0,0.255836
2500.0,0.253109
2505.0,0.249441
2510.0,0.245946
2515.0,0.2433
2520.0,0.241158
2525.0,0.23751
2530.0,0.234109
2535.0,0.230756
2540.0,0.226709
2545.0,0.221228
2550.0,0.218386
2555.0,0.215747
2560.0,0.211912
2565.13,0.208857
2570.22,0.204635
2575.33,0.200913
2580.46,0.196657
2581.74,0.194993
2583.03,0.194432
2584.31,0.19381
2585.6,0.192878
2586.89,0.192286
2588.19,0.191444
2589.48,0.190582
2590.77,0.189332
2592.07,0.187873
2593.36,0.186626
2594.66,0.184513
2595.96,0.183188
2597.26,0.184105
2598.56,0.183888
2599.87,0.182306
2601.17,0.180512
2602.48,0.179499
2603.78,0.178747
2605.09,0.177212
2606.4,0.175994
2607.71,0.175882
2609.03,0.17513
2610.34,0.173499
2611.66,0.172452
2612.97,0.171313
2614.29,0.170295
2615.61,0.169389
2616.93,0.168035
2618.25,0.166847
2619.57,0.165884
2620.9,0.164448
2622.22,0.163878
2623.55,0.163421
2624.88,0.161984
2626.21,0.160591
2627.54,0.159354
2628.87,0.158981
2630.21,0.157699
2631.54,0.15608
2632.88,0.155981
2634.21,0.154971
2635.55,0.153453
2636.89,0.152418
2638.24,0.150796
2639.58,0.149528
2640.92,0.148853
2642.27,0.147525
2643.62,0.145681
2644.97,0.144823
2646.32,0.144092
2647.67,0.143041
2649.02,0.141781
2650.38,0.140677
2651.73,0.139638
2653.09,0.138196
2654.45,0.13743
2655.81,0.136708
2657.17,0.135202
2658.53,0.133629
2659.89,0.131964
2661.26,0.130951
2662.63,0.130067
2664.0,0.128883
2665.36,0.127144
2666.74,0.126091
2668.11,0.12541
2669.48,0.124234
2670.86,0.122356
2672.23,0.121214
2673.61,0.120602
2674.99,0.118835
2676.37,0.117181
2677.76,0.116077
2679.14,0.115237
2680.52,0.114149
2681.91,0.113045
2683.3,0.111508
2684.69,0.10975
2686.08,0.108569
2687.47,0.107397
2688.87,0.105679
2690.26,0.104311
2691.66,0.10341
2693.06,0.102309
2694.46,0.100806
2695.86,0.099229
2697.26,0.097993
2698.66,0.097063
2700.07,0.095795
2701.48,0.094196
2702.89,0.092828
2704.3,0.091891
2705.71,0.090668
2707.12,0.089431
2708.53,0.088465
2709.95,0.087176
2711.37,0.085688
2712.79,0.084403
2714.21,0.08315
2715.63,0.081812
2717.05,0.080631
2718.48,0.079276
2719.9,0.078035
2721.33,0.076967
2722.76,0.075965
2724.19,0.074736
2725.62,0.073374
2727.06,0.072415
2728.49,0.071175
2729.93,0.070109
2731.37,0.069065
2732.81,0.067867
2734.25,0.066664
2735.69,0.065501
2737.14,0.064417
2738.58,0.06375
2740.03,0.062702
2741.48,0.061386
2742.93,0.06051
2744.38,0.059727
2745.83,0.058841
2747.29,0.057959
2748.75,0.056959
2750.2,0.055695
2751.66,0.054594
2753.13,0.053971
2754.59,0.053339
2756.05,0.052508
2757.52,0.051947
2758.99,0.051219
2760.46,0.050142
2761.93,0.049534
2763.4,0.048828
2764.87,0.048007
2766.35,0.047578
2767.82,0.046957
2769.3,0.046281
2770.78,0.045771
2772.26,0.044919
2773.75,0.04401
2775.23,0.043361
2776.72,0.042629
2778.21,0.041994
2779.7,0.041725
2781.19,0.041462
2782.68,0.040607
2784.18,0.039748
2785.67,0.039057
2787.17,0.038908
2788.67,0.038737
2790.17,0.038263
2791.67,0.037798
2793.18,0.03742
2794.68,0.037116
2796.19,0.036534
2797.7,0.035825
2799.21,0.03548
2800.72,0.035121
2802.24,0.034701
2803.75,0.034159
2805.27,0.033534
2806.79,0.033153
2808.31,0.032885
2809.83,0.032419
2811.35,0.032225
2812.88,0.032178
2814.41,0.031747
2815.93,0.031315
2817.46,0.031109
2819.0,0.030635
2820.53,0.029976
2822.07,0.029663
2823.6,0.029794
2825.14,0.029472
2826.68,0.028919
2828.22,0.028574
2829.77,0.028346
2831.31,0.028016
2832.86,0.027726
2834.41,0.027441
2835.96,0.027246
2837.51,0.027069
2839.07,0.026893
2840.62,0.02649
2842.18,0.026268
2843.74,0.025979
2845.3,0.025667
2846.86,0.025411
2848.43,0.025252
2849.99,0.024877
2851.56,0.024531
2853.13,0.024415
2854.7,0.024336
2856.27,0.024204
2857.85,0.024092
2859.42,0.02366
2861.0,0.023443
2862.58,0.023265
2864.16,0.022964
2865.75,0.022839
2867.33,0.022511
2868.92,0.021972
2870.51,0.021846
2872.1,0.021857
2873.69,0.021753
2875.28,0.021761
2876.88,0.021626
2878.48,0.021038
2880.07,0.020786
2881.68,0.020795
2883.28,0.020659
2884.88,0.020536
2886.49,0.020312
2888.1,0.020024
2889.71,0.019911
2891.32,0.019742
2892.93,0.019622
2894.55,0.019408
2896.16,0.01928
2897.78,0.019192
2899.4,0.019121
2901.03,0.018917
2902.65,0.018547
2904.28,0.018273
2905.91,0.018158
2907.54,0.018302
2909.17,0.018159
2910.8,0.01791
2912.44,0.017852
2914.07,0.017875
2915.71,0.017403
2917.35,0.017122
2918.99,0.017061
2920.64,0.016986
2922.29,0.016963
2923.93,0.016861
2925.58,0.016561
2927.24,0.016549
2928.89,0.0162
2930.55,0.015877
2932.2,0.015851
2933.86,0.015935
2935.52,0.015956
2937.19,0.015676
2938.85,0.015397
2940.52,0.015433
2942.19,0.015316
2943.86,0.014999
2945.53,0.014736
2947.21,0.014771
2948.88,0.014561
2950.56,0.014333
2952.24,0.014169
2953.92,0.013994
2955.61,0.013888
2957.29,0.013738
2958.98,0.013527
2960.67,0.013471
2962.36,0.013309
2964.06,0.013011
2965.75,0.012742
2967.45,0.012705
2969.15,0.012932
2970.85,0.012761
2972.55,0.012366
2974.26,0.012193
2975.97,0.012072
2977.68,0.012041
2979.39,0.011885
2981.1,0.011797
2982.82,0.011751
2984.53,0.011711
2986.25,0.011809
2987.97,0.011434
2989.7,0.011011
2991.42,0.010906
2993.15,0.010827
2994.88,0.010689
2996.61,0.010519
2998.34,0.010506
3000.08,0.010582
3001.82,0.010607
3003.55,0.010539
3005.3,0.010511
3007.04,0.010537
3008.78,0.010455
3010.53,0.010452
3012.28,0.010537
3014.03,0.010689
3015.79,0.010701
3017.54,0.010673
3019.3,0.011105
3021.06,0.01142
3022.82,0.011449
3024.58,0.011608
3026.35,0.011818
3028.12,0.01204
3029.89,0.01226
3031.66,0.012483
3033.43,0.012557
3035.21,0.01275
3036.99,0.012797
3038.77,0.012958
3040.55,0.013329
3042.33,0.013528
3044.12,0.013816
3045.91,0.014145
3047.7,0.014356
3049.49,0.01439
3051.29,0.014519
3053.08,0.014819
3054.88,0.01497
3056.68,0.014949
3058.49,0.015174
3060.29,0.015696
3062.1,0.015993
3063.91,0.016178
3065.72,0.016387
3067.54,0.016542
3069.35,0.016824
3071.17,0.01712
3072.99,0.017399
3074.81,0.017638
3076.64,0.017932
3078.47,0.018284
3080.29,0.018591
3082.13,0.019013
3083.96,0.019215
3085.79,0.019242
3087.63,0.019408
3089.47,0.019651
3091.31,0.019939
3093.16,0.020176
3095.01,0.020353
3096.85,0.020284
3098.71,0.020309
3100.56,0.02072
3102.41,0.02098
3104.27,0.021056
3106.13,0.021119
3107.99,0.021076
3109.86,0.02112
3111.73,0.021315
3113.59,0.021651
3115.47,0.021705
3117.34,0.021602
3119.21,0.021625
3121.09,0.02184
3122.97,0.021878
3124.86,0.02191
3126.74,0.02192
3128.63,0.022119
3130.52,0.022376
3132.41,0.022244
3134.3,0.022221
3136.2,0.02235
3138.1,0.022288
3140.0,0.022253
3141.9,0.022371
3143.81,0.022496
3145.71,0.022604
3147.62,0.022516
3149.54,0.022481
3151.45,0.022552
3153.37,0.022461
3155.29,0.022306
3157.21,0.022401
3159.13,0.022545
3161.06,0.022503
3162.99,0.022482
3164.92,0.022552
3166.85,0.022439
3168.79,0.02237
3170.72,0.022483
3172.67,0.022531
3174.61,0.022504
3176.55,0.022519
3178.5,0.022438
3180.45,0.022485
3182.4,0.022494
3184.36,0.0225
3186.32,0.022365
3188.27,0.022347
3190.24,0.022251
3192.2,0.022168
3194.17,0.022271
3196.14,0.022323
3198.11,0.022355
3200.08,0.022169
3202.06,0.022042
3204.04,0.022061
3206.02,0.022078
3208.0,0.022284
3209.99,0.02231
3211.98,0.0223
3213.97,0.02236
3215.96,0.022255
3217.96,0.022169
3219.96,0.022173
3221.96,0.022151
3223.96,0.022286
3225.97,0.022353
3227.98,0.022236
3229.99,0.022201
3232.0,0.022373
3234.02,0.022502
3236.04,0.022492
3238.06,0.02244
3240.08,0.022475
3242.11,0.022505
3244.14,0.022494
3246.17,0.022658
3248.2,0.022877
3250.24,0.022834
3252.28,0.022854
3254.32,0.023043
3256.37,0.023098
3258.41,0.023301
3260.46,0.023362
3262.51,0.02346
3264.57,0.023659
3266.63,0.023545
3268.69,0.023468
3270.75,0.023576
3272.81,0.02372
3274.88,0.023801
3276.95,0.023818
3279.02,0.023895
3281.1,0.024073
3283.18,0.02419
3285.26,0.024248
3287.34,0.02422
3289.43,0.024269
3291.51,0.024295
3293.61,0.024275
3295.7,0.024385
3297.8,0.024418
3299.9,0.024507
3302.0,0.024722
3304.1,0.024818
3306.21,0.024845
3308.32,0.02479
3310.43,0.024658
3312.55,0.02473
3314.66,0.024903
3316.79,0.024907
3318.91,0.024828
3321.03,0.025012
3323.16,0.025208
3325.29,0.025145
3327.43,0.025036
3329.57,0.025107
3331.71,0.025257
3333.85,0.025426
3335.99,0.025534
3338.14,0.025492
3340.29,0.025497
3342.45,0.025514
3344.6,0.025419
3346.76,0.025412
3348.92,0.02541
3351.09,0.025398
3353.26,0.025428
3355.43,0.025344
3357.6,0.025402
3359.78,0.025591
3361.96,0.025564
3364.14,0.025538
3366.32,0.025702
3368.51,0.02578
3370.7,0.025733
3372.89,0.025685
3375.09,0.025705
3377.29,0.025721
3379.49,0.025778
3381.69,0.02588
3383.9,0.025862
3386.11,0.025704
3388.32,0.025636
3390.54,0.025831
3392.76,0.025959
3394.98,0.025824
3397.21,0.025802
3399.43,0.025726
3401.66,0.025665
3403.9,0.025815
3406.13,0.02593
3408.37,0.025901
3410.61,0.025915
3412.86,0.025945
3415.11,0.025882
3417.36,0.025846
3419.61,0.025824
3421.87,0.025857
3424.13,0.025769
3426.39,0.025702
3428.66,0.025803
3430.93,0.025909
3433.2,0.025894
3435.48,0.025967
3437.76,0.025926
3440.04,0.025815
3442.32,0.025732
3444.61,0.025555
3446.9,0.025526
3449.19,0.025609
3451.49,0.025607
3453.79,0.025536
3456.09,0.02568
3458.4,0.025848
3460.7,0.025798
3463.02,0.025822
3465.33,0.025823
3467.65,0.025813
3469.97,0.02576
3472.29,0.025817
3474.62,0.025822
3476.95,0.025858
3479.29,0.025875
3481.62,0.025874
3483.96,0.025931
3486.3,0.025957
3488.65,0.026054
3491.0,0.026076
3493.35,0.026011
3495.71,0.026162
3498.07,0.026321
3500.43,0.026316
3502.79,0.026312
3505.16,0.026176
3507.53,0.026211
3509.91,0.026333
3512.29,0.026412
3514.67,0.026396
3517.05,0.026395
3519.44,0.026421
3521.83,0.026505
3524.23,0.026539
3526.62,0.026492
3529.02,0.026461
3531.43,0.026603
3533.83,0.026642
3536.24,0.026572
3538.66,0.02664
3541.08,0.026719
3543.5,0.026735
3545.92,0.026888
3548.35,0.026875
3550.78,0.026923
3553.21,0.027043
3555.65,0.027011
3558.09,0.026991
3560.53,0.027074
3562.98,0.027227
3565.43,0.027305
3567.88,0.027352
3570.34,0.027451
3572.8,0.027483
3575.27,0.02758
3577.73,0.027627
3580.2,0.02767
3582.68,0.027701
3585.16,0.027653
3587.64,0.027674
3590.12,0.027779
3592.61,0.027853
3595.1,0.027908
3597.6,0.027902
3600.09,0.027996
3602.6,0.028001
3605.1,0.028024
3607.61,0.028093
3610.12,0.028078
3612.64,0.028144
3615.16,0.028132
3617.68,0.028028
3620.21,0.028109
3622.74,0.028349
3625.27,0.028428
3627.81,0.028304
3630.35,0.028333
3632.89,0.028376
3635.44,0.028392
3637.99,0.028429
3640.54,0.028444
3643.1,0.028524
3645.66,0.02858
3648.23,0.028531
3650.8,0.028471
3653.37,0.028449
3655.95,0.028541
3658.53,0.02859
3661.11,0.028605
3663.7,0.028652
3666.29,0.028814
3668.89,0.028923
3671.48,0.028809
3674.09,0.028823
3676.69,0.028859
3679.3,0.028898
3681.91,0.028979
3684.53,0.029081
3687.15,0.02921
3689.78,0.02926
3692.4,0.029236
3695.04,0.029215
3697.67,0.029253
3700.31,0.029338
3702.95,0.029347
3705.6,0.029406
3708.25,0.029461
3710.91,0.02954
3713.56,0.02959
3716.23,0.029578
3718.89,0.029606
3721.56,0.029654
3724.23,0.029593
3726.91,0.029478
3729.59,0.029584
3732.28,0.029904
3734.97,0.030059
3737.66,0.030026
3740.36,0.030025
3743.06,0.030024
3745.76,0.030115
3748.47,0.030314
3751.18,0.030424
3753.9,0.030472
3756.62,0.030355
3759.34,0.030368
3762.07,0.030513
3764.8,0.030561
3767.54,0.030566
3770.28,0.030588
3773.02,0.030737
3775.77,0.030852
3778.52,0.030965
3781.28,0.031055
3784.04,0.031143
3786.8,0.031299
3789.57,0.031351
3792.34,0.031413
3795.12,0.03158
3797.9,0.031546
3800.69,0.031566
3803.47,0.031722
3806.27,0.031792
3809.06,0.031829
3811.86,0.031968
3814.67,0.032029
3817.48,0.032121
3820.29,0.032166
3823.11,0.032244
3825.93,0.032475
3828.76,0.032579
3831.59,0.032572
3834.42,0.032711
3837.26,0.03285
3840.1,0.032917
3842.95,0.033038
3845.8,0.033294
3848.65,0.033446
3851.51,0.033538
3854.38,0.033584
3857.24,0.033587
3860.12,0.033798
3862.99,0.033951
3865.87,0.034101
3868.76,0.034185
3871.65,0.034291
3874.54,0.034482
3877.44,0.034475
3880.34,0.034569
3883.25,0.034833
3886.16,0.035055
3889.07,0.035159
3891.99,0.035239
3894.92,0.035433
3897.85,0.035537
3900.78,0.035625
3903.72,0.035837
3906.66,0.03613
3909.6,0.036359
3912.55,0.03653
3915.51,0.036539
3918.47,0.036607
3921.43,0.036853
3924.4,0.037063
3927.38,0.037271
3930.35,0.037485
3933.33,0.037677
3936.32,0.03783
3939.31,0.038073
3942.31,0.038279
3945.31,0.038304
3948.31,0.038442
3951.32,0.038743
3954.34,0.038899
3957.35,0.039122
3960.38,0.039455
3963.41,0.039706
3966.44,0.039832
3969.48,0.040016
3972.52,0.040158
3975.56,0.040269
3978.61,0.040529
3981.67,0.040972
3984.73,0.041232
3987.8,0.041447
3990.87,0.041778
3993.94,0.042095
3997.02,0.042332
4000.1,0.042554
4003.19,0.042798
4006.29,0.043079
4009.39,0.043316
4012.49,0.043531
4015.6,0.043773
4018.71,0.04406
4021.83,0.044419
4024.95,0.044635
4028.08,0.04494
4031.21,0.04536
4034.35,0.045683
4037.49,0.045958
4040.64,0.046172
4043.79,0.046435
4046.94,0.046758
4050.11,0.047047
4053.27,0.047358
4056.44,0.047582
4059.62,0.047819
4062.8,0.048122
4065.99,0.048488
4069.18,0.048852
4072.38,0.049164
4075.58,0.049373
4078.78,0.049638
4082.0,0.049933
4085.21,0.050211
4088.43,0.050593
4091.66,0.0509
4094.89,0.051094
4098.13,0.051424
4101.37,0.051664
4104.62,0.051874
4107.87,0.052205
4111.13,0.052465
4114.39,0.052645
4117.66,0.052929
4120.93,0.053171
4124.21,0.053368
4127.5,0.053593
4130.79,0.053932
4134.08,0.054234
4137.38,0.05435
4140.68,0.054428
4143.99,0.054704
4147.31,0.054986
4150.63,0.055351
4153.95,0.055735
4157.29,0.055958
4160.62,0.056167
4163.96,0.056396
4167.31,0.05659
4170.66,0.056763
4174.02,0.057066
4177.39,0.057389
4180.75,0.057576
4184.13,0.057741
4187.51,0.057974
4190.89,0.0582
4194.28,0.058455
4197.68,0.058728
4201.08,0.058909
4204.49,0.059048
4207.9,0.059142
4211.32,0.059187
4214.74,0.059263
4218.17,0.059546
4221.61,0.059701
4225.05,0.059725
4228.5,0.059883
4231.95,0.060081
4235.4,0.060194
4238.87,0.060353
4242.34,0.060433
4245.81,0.060467
4249.29,0.06057
4252.78,0.060686
4256.27,0.060713
4259.77,0.060734
4263.27,0.060608
4266.78,0.060414
4270.29,0.06036
4273.81,0.06048
4277.34,0.060723
4280.87,0.060815
4284.41,0.060885
4287.95,0.060983
4291.5,0.06097
4295.06,0.060981
4298.62,0.061023
4302.19,0.061032
4305.76,0.060985
4309.34,0.060912
4312.92,0.060887
4316.52,0.060898
4320.11,0.060982
4323.72,0.060864
4327.32,0.060691
4330.94,0.060673
4334.56,0.060676
4338.19,0.060738
4341.82,0.060599
4345.46,0.06034
4349.11,0.060285
4352.76,0.060261
4356.42,0.06016
4360.08,0.060101
4363.75,0.060029
4367.43,0.059869
4371.11,0.059658
4374.8,0.059543
4378.49,0.059384
4382.19,0.059092
4385.9,0.058901
4389.61,0.058762
4393.33,0.058512
4397.06,0.058297
4400.79,0.058106
4404.53,0.057938
4408.28,0.057805
4412.03,0.057541
4415.79,0.057255
4419.55,0.057067
4423.32,0.056841
4427.1,0.056516
4430.88,0.056166
4434.68,0.055888
4438.47,0.05562
4442.28,0.055281
4446.08,0.054981
4449.9,0.054707
4453.72,0.054336
4457.55,0.054048
4461.39,0.053826
4465.23,0.05354
4469.08,0.053154
4472.94,0.052794
4476.8,0.052525
4480.67,0.052242
4484.55,0.051891
4488.43,0.051594
4492.32,0.051385
4496.21,0.051064
4500.12,0.050726
4504.03,0.050373
4507.94,0.050032
4511.87,0.0498
4515.8,0.049574
4519.73,0.049208
4523.68,0.048925
4527.63,0.048673
4531.59,0.048418
4535.55,0.04816
4539.52,0.048086
4543.5,0.047991
4547.49,0.047797
4551.48,0.047615
4555.48,0.047386
4559.49,0.047167
4563.5,0.047002
4567.52,0.046773
4571.55,0.046507
4575.58,0.046316
4579.63,0.046167
4583.67,0.046025
4587.73,0.045796
4591.79,0.045583
4595.86,0.04542
4599.94,0.045214
4604.03,0.045017
4608.12,0.044839
4612.22,0.04455
4616.33,0.044253
4620.44,0.04412
4624.56,0.043923
4628.69,0.043675
4632.83,0.043538
4636.97,0.043394
4641.12,0.043213
4645.28,0.043017
4649.45,0.042793
4653.62,0.04256
4657.8,0.042309
4661.99,0.042178
4666.19,0.041936
4670.39,0.041674
4674.6,0.041521
4678.82,0.041372
4683.05,0.041183
4687.28,0.040932
4691.52,0.040581
4695.77,0.040188
4700.03,0.039844
4704.3,0.03948
4708.57,0.039101
4712.85,0.038733
4717.14,0.038308
4721.43,0.03795
4725.74,0.037581
4730.05,0.037012
4734.37,0.036537
4738.7,0.036198
4743.03,0.035823
4747.38,0.035533
4751.73,0.0353
4756.09,0.035054
4760.45,0.034827
4764.83,0.034545
4769.21,0.034341
4773.6,0.034156
4778.0,0.033954
4782.41,0.033768
4786.83,0.033555
4791.25,0.033384
4795.68,0.033235
4800.13,0.033015
4804.57,0.032842
4809.03,0.032672
4813.5,0.032497
4817.97,0.032368
4822.45,0.032187
4826.94,0.031934
4831.44,0.031756
4835.95,0.031551
4840.46,0.031323
4844.99,0.031157
4849.52,0.031002
4854.06,0.030853
4858.61,0.030748
4863.17,0.030621
4867.73,0.030478
4872.31,0.030247
4876.89,0.030154
4881.48,0.030123
4886.08,0.030104
4890.69,0.030106
4895.31,0.030095
4899.94,0.030142
4904.57,0.030222
4909.22,0.030329
4913.87,0.030469
4918.53,0.030575
4923.21,0.030658
4927.88,0.030783
4932.57,0.03097
4937.27,0.031121
4941.98,0.031194
4946.69,0.031252
4951.42,0.031392
4956.15,0.031569
4960.9,0.031724
4965.65,0.031828
4970.41,0.031874
4975.18,0.031989
4979.96,0.032112
4984.75,0.032203
4989.54,0.032231
4994.35,0.032245
4999.17,0.032195
5003.99,0.032251
5008.83,0.032336
5013.67,0.03236
5018.52,0.032442
5023.39,0.032494
5028.26,0.032444
5033.14,0.032401
5038.03,0.032433
5042.93,0.032493
5047.84,0.032499
5052.76,0.032557
5057.69,0.032599
5062.63,0.032536
5067.58,0.032566
5072.54,0.032618
5077.51,0.0326
5082.49,0.032578
5087.47,0.032585
5092.47,0.032613
5097.48,0.032584
5102.5,0.032517
5107.52,0.032528
5112.56,0.032576
5117.61,0.032551
5122.66,0.032406
5127.73,0.032334
5132.81,0.032324
5137.89,0.032365
5142.99,0.03236
5148.1,0.032246
5153.22,0.032238
5158.34,0.03224
5163.48,0.03217
5168.63,0.032089
5173.79,0.032004
5178.96,0.032015
5184.13,0.032102
5189.32,0.032085
5194.52,0.032013
5199.73,0.031968
5204.96,0.031875
5210.19,0.031712
5215.43,0.031612
5220.68,0.031548
5225.94,0.03144
5231.22,0.031363
5236.5,0.031353
5241.79,0.031304
5247.1,0.031175
5252.42,0.031042
5257.74,0.031007
5263.08,0.030983
5268.43,0.030913
5273.79,0.030799
5279.16,0.030679
5284.54,0.030524
5289.93,0.030348
5295.34,0.03028
5300.75,0.030228
5306.18,0.030169
5311.61,0.030087
5317.06,0.02991
5322.52,0.029701
5327.99,0.02963
5333.47,0.029596
5338.96,0.029489
5344.47,0.029304
5349.98,0.029179
5355.51,0.029155
5361.05,0.029043
5366.6,0.028862
5372.16,0.028731
5377.73,0.028624
5383.32,0.02849
5388.91,0.02837
5394.52,0.028187
5400.14,0.02808
5405.77,0.028014
5411.41,0.027901
5417.07,0.027743
5422.74,0.027649
5428.41,0.027574
5434.1,0.027469
5439.81,0.027326
5445.52,0.027178
5451.25,0.027063
5456.98,0.026958
5462.73,0.026817
5468.5,0.026646
5474.27,0.026576
5480.06,0.026528
5485.86,0.026464
5491.67,0.026399
5497.49,0.026317
5503.33,0.026149
5509.18,0.026009
5515.04,0.025952
5520.91,0.025884
5526.8,0.025855
5532.69,0.025721
5538.61,0.025608
5544.53,0.02559
5550.47,0.025544
5556.41,0.025474
5562.38,0.025418
5568.35,0.025407
5574.34,0.025307
5580.34,0.025189
5586.35,0.025098
5592.38,0.025068
5598.42,0.025077
5604.47,0.02505
5610.54,0.02501
5616.61,0.024992
5622.71,0.024969
5628.81,0.024864
5634.93,0.024808
5641.06,0.024803
5647.21,0.024731
5653.36,0.024676
5659.54,0.024626
5665.72,0.024573
5671.92,0.024508
5678.13,0.024478
5684.36,0.024489
5690.6,0.024478
5696.85,0.02448
5703.12,0.024542
5709.4,0.024525
5715.69,0.024425
5722.0,0.024498
5728.33,0.024556
5734.66,0.024504
5741.01,0.024457
5747.38,0.024439
5753.76,0.024373
5760.15,0.024298
5766.56,0.024188
5772.98,0.024165
5779.41,0.024258
5785.86,0.024268
5792.33,0.024199
5798.81,0.024146
5805.3,0.024188
5811.81,0.02419
5818.33,0.024081
5824.87,0.02402
5831.42,0.024007
5837.99,0.024021
5844.57,0.024034
5851.17,0.024044
5857.78,0.023967
5864.41,0.023955
5871.05,0.023985
5877.7,0.023964
5884.38,0.023939
5891.06,0.023957
5897.76,0.024012
5904.48,0.024007
5911.21,0.023882
5917.96,0.023859
5924.73,0.023918
5931.5,0.023921
5938.3,0.023892
5945.11,0.023928
5951.93,0.023995
5958.78,0.023984
5965.63,0.023931
5972.51,0.023853
5979.39,0.023851
5986.3,0.023945
5993.22,0.024003
6000.16,0.024009
6007.11,0.024022
6014.08,0.024096
6021.06,0.024138
6028.06,0.02416
6035.08,0.024174
6042.12,0.024151
6049.17,0.02411
6056.23,0.024051
6063.32,0.024043
6070.42,0.024084
6077.53,0.024087
6084.67,0.024055
6091.82,0.024073
6098.98,0.024043
6106.17,0.023888
6113.37,0.023763
6120.58,0.023769
6127.82,0.023764
6135.07,0.023687
6142.34,0.023727
6149.63,0.023749
6156.93,0.023575
6164.25,0.023466
6171.59,0.02342
6178.95,0.023363
6186.32,0.023254
6193.71,0.023146
6201.12,0.023001
6208.54,0.022893
6215.99,0.022834
6223.45,0.022752
6230.93,0.02259
6238.43,0.022448
6245.95,0.022316
6253.48,0.022142
6261.03,0.021983
6268.6,0.021885
6276.19,0.021771
6283.8,0.021573
6291.43,0.021405
6299.07,0.021292
6306.73,0.02113
6314.42,0.02106
6322.12,0.021021
6329.84,0.020921
6337.57,0.020823
6345.33,0.020681
6353.11,0.020525
6360.9,0.020328
6368.72,0.020067
6376.55,0.019883
6384.4,0.019722
6392.27,0.019572
6400.17,0.019456
6408.08,0.019255
6416.01,0.018971
6423.96,0.018657
6431.93,0.018439
6439.92,0.018267
6447.93,0.017987
6455.96,0.017661
6464.01,0.017335
6472.08,0.017072
6480.17,0.016873
6488.28,0.016658
6496.41,0.016296
6504.56,0.015988
6512.73,0.015684
6520.92,0.015339
6529.14,0.015069
6537.37,0.014774
6545.63,0.014514
6553.9,0.014264
6562.2,0.013907
6570.51,0.013523
6578.85,0.013191
6587.21,0.012799
6595.59,0.012514
6603.99,0.012266
6612.42,0.012006
6620.86,0.011738
6629.33,0.011415
6637.82,0.011045
6646.33,0.010672
6654.86,0.010323
6663.41,0.009993
6671.99,0.009635
6680.59,0.009385
6689.21,0.009241
6697.85,0.009164
6706.51,0.009022
6715.2,0.008918
6723.91,0.008937
6732.64,0.009076
6741.4,0.009387
6750.18,0.009849
6758.98,0.010488
6767.8,0.011366
6776.65,0.012394
6785.52,0.01361
6794.41,0.015058
6803.33,0.016833
6812.27,0.018749
6821.23,0.02072
6830.22,0.022781
6839.23,0.025088
6848.26,0.02736
6857.32,0.029571
6866.4,0.03175
6875.51,0.03418
6884.64,0.036363
6893.8,0.038402
6902.98,0.040423
6912.18,0.042314
6921.41,0.044157
6930.66,0.045969
6939.94,0.04769
6949.24,0.049463
6958.57,0.051103
6967.92,0.052812
6977.3,0.054507
6986.7,0.055967
6996.13,0.057314
7005.59,0.058599
7015.07,0.059648
7024.57,0.060279
7034.1,0.06076
7043.66,0.061031
7053.25,0.060949
7062.85,0.060653
7072.49,0.060051
7082.15,0.059241
7091.84,0.058247
7101.55,0.05716
7111.3,0.055918
7121.06,0.054602
7130.86,0.053251
7140.68,0.051939
7150.53,0.050592
7160.41,0.049281
7170.31,0.047997
7180.24,0.046793
7190.2,0.045666
7200.19,0.044675
7210.2,0.043677
7220.24,0.042802
7230.31,0.042021
7240.41,0.041268
7250.54,0.040603
7260.69,0.039992
7270.88,0.039343
7281.09,0.038743
7291.33,0.038195
7301.6,0.037636
7311.9,0.037083
7322.22,0.036637
7332.58,0.036262
7342.97,0.035898
7353.38,0.035507
7363.83,0.0351
7374.3,0.034758
7384.81,0.034488
7395.34,0.03424
7405.91,0.033918
7416.5,0.033603
7427.13,0.03338
7437.78,0.033145
7448.47,0.032884
7459.19,0.032654
7469.94,0.032472
7480.71,0.032251
7491.52,0.032031
7502.37,0.031875
7513.24,0.031738
7524.14,0.031617
7535.08,0.031453
7546.05,0.031254
7557.05,0.03109
7568.08,0.03095
7579.15,0.030918
7590.24,0.030814
7601.37,0.030644
7612.53,0.030474
7623.73,0.030426
7634.96,0.03049
7646.22,0.030386
7657.51,0.030206
7668.84,0.030128
7680.2,0.030121
7691.59,0.030149
7703.02,0.030113
7714.49,0.030021
7725.98,0.029891
7737.52,0.029834
7749.08,0.029755
7760.68,0.029655
7772.32,0.02953
7783.99,0.029344
7795.69,0.029168
7807.43,0.028935
7819.21,0.028734
7831.02,0.028515
7842.87,0.028314
7854.75,0.028164
7866.67,0.027864
7878.62,0.027506
7890.62,0.02725
7902.64,0.027072
7914.71,0.026775
7926.81,0.026368
7938.95,0.026095
7951.13,0.025756
7963.34,0.025421
7975.59,0.025079
7987.88,0.024618
8000.21,0.024209
8012.57,0.023728
8024.98,0.023289
8037.42,0.022801
8049.9,0.022289
8062.42,0.021912
8074.98,0.021516
8087.57,0.021086
8100.21,0.020639
8112.89,0.02023
8125.6,0.019744
8138.36,0.019304
8151.16,0.018961
8163.99,0.018566
8176.87,0.018161
8189.79,0.01777
8202.75,0.017334
8215.75,0.01677
8228.79,0.016217
8241.87,0.015755
8254.99,0.015283
8268.16,0.014792
8281.37,0.014217
8294.62,0.013671
8307.91,0.013189
8321.24,0.012718
8334.62,0.01224
8348.04,0.011744
8361.51,0.011324
8375.02,0.010953
8388.57,0.010697
8402.16,0.010409
8415.8,0.010225
8429.49,0.010338
8443.22,0.010555
8456.99,0.010887
8470.81,0.011714
8484.67,0.013109
8498.58,0.015083
8512.54,0.017798
8526.54,0.021196
8540.58,0.025402
8554.68,0.030435
8568.82,0.036188
8583.0,0.042596
8597.24,0.049418
8611.52,0.056596
8625.85,0.064009
8640.23,0.071444
8654.65,0.078689
8669.12,0.085523
8683.64,0.091745
8698.21,0.097588
8712.83,0.103142
8727.5,0.10829
8742.22,0.113008
8756.99,0.117298
8771.8,0.121008
8786.67,0.124378
8801.59,0.127372
8816.56,0.130001
8831.58,0.132237
8846.65,0.134099
8861.77,0.135647
8876.94,0.136869
8892.17,0.137655
8907.45,0.13821
8922.78,0.138561
8938.16,0.138831
8953.6,0.139037
8969.09,0.139061
8984.64,0.139051
9000.23,0.139014
9015.89,0.138796
9031.59,0.138533
9047.36,0.138011
9063.17,0.137155
9079.05,0.136185
9094.97,0.135004
9110.96,0.133598
9127.0,0.132059
9143.1,0.130072
9159.25,0.127874
9175.46,0.125437
9191.73,0.122856
9208.06,0.120104
9224.44,0.117007
9240.88,0.113725
9257.38,0.110476
9273.94,0.107173
9290.56,0.103807
9307.24,0.100511
9323.98,0.097298
9340.78,0.094208
9357.64,0.091246
9374.57,0.088382
9391.55,0.085694
9408.59,0.083269
9425.7,0.081155
9442.87,0.079154
9460.1,0.077217
9477.4,0.075443
9494.75,0.073927
9512.17,0.072517
9529.66,0.071139
9547.21,0.06987
9564.83,0.0687
9582.5,0.067564
9600.25,0.066466
9618.06,0.065474
9635.94,0.064527
9653.88,0.063428
9671.89,0.062554
9689.97,0.061809
9708.12,0.061052
9726.33,0.060531
9744.62,0.060014
9762.97,0.059372
9781.39,0.058875
9799.88,0.058398
9818.44,0.05796
9837.07,0.057525
9855.77,0.057168
9874.54,0.056847
9893.39,0.056534
9912.3,0.056259
9931.29,0.055953
9950.36,0.055655
9969.49,0.055308
9988.7,0.054929
10007.98,0.054542
10027.34,0.054306
10046.77,0.054008
10066.28,0.053576
10085.87,0.053279
10105.53,0.052997
10125.26,0.052805
10145.08,0.052671
10164.97,0.052354
10184.94,0.051994
10204.99,0.051689
10225.12,0.051214
10245.33,0.050791
10265.61,0.050323
10285.98,0.050113
10306.43,0.050335
10326.96,0.050677
10347.57,0.05091
10368.27,0.051054
10389.05,0.051034
10409.91,0.051096
10430.86,0.051185
10451.88,0.051199
10473.0,0.051332
10494.2,0.05164
10515.49,0.051861
10536.86,0.051974
10558.32,0.052169
10579.87,0.052392
10601.5,0.052533
10623.23,0.052642
10645.04,0.052777
10666.94,0.053021
10688.94,0.053393
10711.02,0.053899
10733.2,0.054161
10755.47,0.054187
10777.83,0.054489
10800.28,0.054781
10822.83,0.054982
10845.47,0.055225
10868.21,0.055542
10891.04,0.055879
10913.97,0.056084
10936.99,0.056324
10960.12,0.056499
10983.34,0.056626
11006.66,0.056823
11030.07,0.0571
11053.59,0.05719
11077.21,0.057374
11100.93,0.057554
11124.75,0.057692
11148.68,0.057843
11172.71,0.058106
11196.84,0.058341
11221.07,0.058519
11245.41,0.058653
11269.86,0.058828
11294.41,0.05899
11319.07,0.059294
11343.84,0.059505
11368.72,0.059646
11393.7,0.05985
11418.8,0.060036
11444.01,0.06017
11469.33,0.060343
11494.76,0.06055
11520.3,0.060676
11545.96,0.060789
11571.73,0.060866
11597.62,0.061181
11623.62,0.061569
11649.74,0.061773
11675.98,0.061943
11702.34,0.062243
11728.81,0.062469
11755.41,0.062568
11782.13,0.062696
11808.96,0.062875
11835.92,0.063037
11863.01,0.063041
11890.22,0.063109
11917.55,0.063429
11945.01,0.063586
11972.6,0.063459
12000.31,0.063472
12028.16,0.063444
12056.13,0.063497
12084.23,0.06359
12112.46,0.063636
12140.83,0.063504
12169.33,0.063348
12197.96,0.063397
12226.73,0.063379
12255.64,0.063145
12284.68,0.063002
12313.86,0.062836
12343.18,0.062649
12372.64,0.062595
12402.24,0.062386
12431.98,0.062295
12461.86,0.062158
12491.89,0.061867
12522.07,0.061562
12552.38,0.061353
12582.85,0.061104
12613.47,0.060888
12644.23,0.060792
12675.15,0.060728
12706.21,0.060602
12737.43,0.060352
12768.81,0.060092
12800.33,0.059798
12832.02,0.059535
12863.86,0.059261
12895.86,0.059125
12928.02,0.059001
12960.34,0.058839
12992.82,0.058573
13025.46,0.058297
13058.27,0.058068
13091.25,0.057908
13124.39,0.057666
13157.7,0.05741
13191.18,0.057046
13224.83,0.056804
13258.66,0.056637
13292.65,0.056451
13326.83,0.056165
13361.17,0.055846
13395.7,0.055432
13430.4,0.055091
13465.29,0.054701
13500.35,0.054193
13535.6,0.053859
13571.03,0.053567
13606.65,0.053018
13642.46,0.052478
13678.46,0.052027
13714.64,0.051805
13751.02,0.051335
13787.59,0.050746
13824.36,0.050365
13861.32,0.049941
13898.49,0.0494
13935.85,0.048816
13973.41,0.048219
14011.17,0.047675
14049.15,0.047016
14087.32,0.046226
14125.71,0.045679
14164.3,0.045182
14203.11,0.044774
14242.13,0.044292
14281.36,0.043632
14320.81,0.042882
14360.49,0.042191
14400.38,0.041721
14440.49,0.041183
14480.82,0.040653
14521.39,0.040226
14562.18,0.039754
14603.2,0.039324
14644.45,0.038872
14685.93,0.03829
14727.66,0.037786
14769.62,0.03726
14811.81,0.036871
14854.25,0.036347
14896.94,0.035705
14939.87,0.035281
14983.05,0.03517
15026.48,0.034674
15070.16,0.033988
15114.1,0.033398
15158.29,0.032717
15202.74,0.032071
15247.46,0.031246
15292.43,0.030441
15337.68,0.029398
15383.19,0.028187
15428.97,0.026794
15475.03,0.025302
15521.36,0.023779
15567.97,0.021841
15614.87,0.019839
15662.04,0.017797
15709.5,0.015639
15757.25,0.013982
15805.29,0.014367
15853.62,0.019575
15902.26,0.031481
15951.19,0.049052
16000.42,0.069092
16049.95,0.085741
16099.8,0.094434
16149.95,0.095468
16200.42,0.093493
16251.21,0.091592
16302.31,0.089136
16353.74,0.08415
16405.49,0.07652
16457.57,0.068715
16509.98,0.062778
16562.73,0.058342
16615.82,0.055213
16669.24,0.052916
16723.02,0.050769
16777.14,0.048805
16831.61,0.047093
16886.43,0.045781
16941.62,0.044993
16997.16,0.044469
17053.08,0.043834
17109.36,0.04359
17166.01,0.04345
17223.04,0.043089
17280.45,0.042693
17338.24,0.0424
17396.43,0.042331
17455.0,0.042214
17513.97,0.042055
17573.34,0.042088
17633.11,0.04225
17693.29,0.042479
17753.89,0.042329
17814.9,0.041917
17876.33,0.041713
17938.18,0.041515
18000.47,0.04139
18063.19,0.041667
18126.35,0.041803
18189.95,0.041662
18254.0,0.041596
18318.5,0.041656
18383.46,0.04158
18448.88,0.041277
18514.77,0.041118
18581.13,0.041255
18647.97,0.041694
18715.29,0.041984
18783.1,0.041596
18851.4,0.0414
18920.2,0.041453
18989.51,0.041678
19059.32,0.041779
19129.65,0.041222
19200.5,0.040813
19271.88,0.040543
19343.79,0.040461
19416.24,0.040547
19489.23,0.040351
19562.77,0.039858
19636.88,0.039506
19711.54,0.039392
19786.78,0.03932
19862.59,0.039344
19938.98,0.039373
20015.96,0.039535
20093.55,0.039519
20171.73,0.039043
20250.53,0.038869
20329.94,0.039225
20409.98,0.039067
20490.65,0.038705
20571.96,0.038966
20653.92,0.03887
20736.54,0.038223
20819.82,0.037347
20903.77,0.036926
20988.4,0.037196
21073.72,0.03721
21159.73,0.036953
21246.46,0.036433
21333.89,0.036438
21422.04,0.036753
21510.93,0.036475
21600.56,0.036026
21690.94,0.035754
21782.08,0.03553
21873.99,0.035304
21966.67,0.034863
22060.15,0.034354
22154.42,0.034366
22249.51,0.034786
22345.41,0.034802
22442.14,0.035039
22539.72,0.034618
22638.14,0.033701
22737.43,0.033233
22837.6,0.033065
22938.65,0.032517
23040.6,0.032148
23143.46,0.031251
23247.24,0.030964
23351.96,0.03093
23457.63,0.030797
23564.25,0.029052
23671.85,0.028006
23780.44,0.028977
23890.02,0.029813
24000.63,0.02913
24112.26,0.027448
24224.93,0.027084
24338.66,0.027205
24453.47,0.028588
24569.36,0.029052
24686.36,0.027406
24804.47,0.02772
24923.73,0.028371
25044.13,0.027886
25165.71,0.027425
25288.46,0.027258
25412.43,0.025497
25537.61,0.022459
25664.04,0.022671
25791.72,0.024773
25920.68,0.02645
