Database of Origin,University of Winnipeg Spectrophotometer Facility
Sample Description,9.2. MAGNETITE: Merged RELAB & Nicole / Merged at 2.5 um / different viewing geometry
Date Added,2016-07-15 22:03:00.244661

Data ID,RPN_MAG_11          
Sample ID,MAG111
Mineral Name,Magnetite
Grain Size,<45
Viewing Geometry,30 / 0 | 30
Resolution,1.2-129
Material Class,Magnetite

Wavelength
305.0,0.047479
310.0,0.045847
315.0,0.04719
320.0,0.047506
325.0,0.047906
330.0,0.047843
335.0,0.04867
340.0,0.047793
345.0,0.048756
350.0,0.049023
355.0,0.048776
360.0,0.049401
365.0,0.049219
370.0,0.049377
375.0,0.049001
380.0,0.049213
385.0,0.0493
390.0,0.048986
395.0,0.049039
400.0,0.048746
405.0,0.048631
410.0,0.049227
415.0,0.048975
420.0,0.048876
425.0,0.048561
430.0,0.048505
435.0,0.048424
440.0,0.048386
445.0,0.048301
450.0,0.048042
455.0,0.047888
460.0,0.047775
465.0,0.047699
470.0,0.0476
475.0,0.047749
480.0,0.04777
485.0,0.048003
490.0,0.048076
495.0,0.048031
500.0,0.048126
505.0,0.048099
510.0,0.048088
515.0,0.048123
520.0,0.048254
525.0,0.048289
530.0,0.048472
535.0,0.048583
540.0,0.048642
545.0,0.048882
550.0,0.049007
555.0,0.049069
560.0,0.049174
565.0,0.049228
570.0,0.049264
575.0,0.049237
580.0,0.049343
585.0,0.049407
590.0,0.049529
595.0,0.049574
600.0,0.04966
605.0,0.04957
610.0,0.049919
615.0,0.050142
620.0,0.050339
625.0,0.050419
630.0,0.050573
635.0,0.050684
640.0,0.05084
645.0,0.05075
650.0,0.050778
655.0,0.050816
660.0,0.050751
665.0,0.050733
670.0,0.050755
675.0,0.050664
680.0,0.050684
685.0,0.050626
690.0,0.050544
695.0,0.050544
700.0,0.050634
705.0,0.050763
710.0,0.050673
715.0,0.050526
720.0,0.050525
725.0,0.050765
730.0,0.050426
735.0,0.050239
740.0,0.050156
745.0,0.05004
750.0,0.049995
755.0,0.049667
760.0,0.050041
765.0,0.049976
770.0,0.049896
775.0,0.049877
780.0,0.049375
785.0,0.049423
790.0,0.049337
795.0,0.049177
800.0,0.048836
805.0,0.049004
810.0,0.048509
815.0,0.048676
820.0,0.048444
825.0,0.048418
830.0,0.047847
835.0,0.048162
840.0,0.047643
845.0,0.047286
850.0,0.047568
855.0,0.045952
860.0,0.046095
865.0,0.046584
870.0,0.046453
875.0,0.045942
880.0,0.045794
885.0,0.04562
890.0,0.045447
895.0,0.045099
900.0,0.044894
905.0,0.044733
910.0,0.043732
915.0,0.043404
920.0,0.043291
925.0,0.043573
930.0,0.043361
935.0,0.042889
940.0,0.042545
945.0,0.042566
950.0,0.042577
955.0,0.042476
960.0,0.042469
965.0,0.042824
970.0,0.04224
975.0,0.042416
980.0,0.04224
985.0,0.041917
990.0,0.041997
995.0,0.041676
1000.0,0.041639
1005.0,0.041711
1010.0,0.041699
1015.0,0.041668
1020.0,0.0415
1025.0,0.041248
1030.0,0.041305
1035.0,0.041138
1040.0,0.041342
1045.0,0.041121
1050.0,0.041037
1055.0,0.04115
1060.0,0.041352
1065.0,0.041029
1070.0,0.041174
1075.0,0.041099
1080.0,0.041088
1085.0,0.040888
1090.0,0.04093
1095.0,0.040964
1100.0,0.041056
1105.0,0.040954
1110.0,0.040795
1115.0,0.040851
1120.0,0.040704
1125.0,0.040835
1130.0,0.040822
1135.0,0.040929
1140.0,0.04094
1145.0,0.040942
1150.0,0.040984
1155.0,0.041046
1160.0,0.041025
1165.0,0.041185
1170.0,0.041
1175.0,0.041232
1180.0,0.041243
1185.0,0.041164
1190.0,0.041171
1195.0,0.041311
1200.0,0.041606
1205.0,0.042113
1210.0,0.041581
1215.0,0.041624
1220.0,0.041941
1225.0,0.041956
1230.0,0.041934
1235.0,0.0419
1240.0,0.042057
1245.0,0.042174
1250.0,0.041959
1255.0,0.041756
1260.0,0.041841
1265.0,0.041955
1270.0,0.042103
1275.0,0.041959
1280.0,0.042083
1285.0,0.04211
1290.0,0.042105
1295.0,0.042134
1300.0,0.042253
1305.0,0.042394
1310.0,0.042594
1315.0,0.042452
1320.0,0.04251
1325.0,0.042941
1330.0,0.042892
1335.0,0.042923
1340.0,0.042849
1345.0,0.042991
1350.0,0.043123
1355.0,0.043371
1360.0,0.043024
1365.0,0.043051
1370.0,0.043009
1375.0,0.043726
1380.0,0.04356
1385.0,0.043279
1390.0,0.044164
1395.0,0.044029
1400.0,0.044136
1405.0,0.044601
1410.0,0.044026
1415.0,0.044722
1420.0,0.04469
1425.0,0.044428
1430.0,0.044369
1435.0,0.044616
1440.0,0.044336
1445.0,0.044624
1450.0,0.044763
1455.0,0.045138
1460.0,0.044875
1465.0,0.045077
1470.0,0.044779
1475.0,0.045195
1480.0,0.04498
1485.0,0.045395
1490.0,0.045443
1495.0,0.045432
1500.0,0.045601
1505.0,0.045706
1510.0,0.045907
1515.0,0.045919
1520.0,0.046061
1525.0,0.046045
1530.0,0.046325
1535.0,0.04582
1540.0,0.04704
1545.0,0.046784
1550.0,0.047155
1555.0,0.047137
1560.0,0.047054
1565.0,0.047385
1570.0,0.047146
1575.0,0.047461
1580.0,0.047306
1585.0,0.047458
1590.0,0.047602
1595.0,0.047392
1600.0,0.047775
1605.0,0.047917
1610.0,0.047894
1615.0,0.048123
1620.0,0.048043
1625.0,0.048156
1630.0,0.048066
1635.0,0.048196
1640.0,0.047967
1645.0,0.048054
1650.0,0.048374
1655.0,0.048425
1660.0,0.048482
1665.0,0.048636
1670.0,0.0486
1675.0,0.048507
1680.0,0.048758
1685.0,0.049207
1690.0,0.049044
1695.0,0.048837
1700.0,0.049032
1705.0,0.049155
1710.0,0.049278
1715.0,0.049263
1720.0,0.049344
1725.0,0.049333
1730.0,0.049525
1735.0,0.049453
1740.0,0.049486
1745.0,0.049574
1750.0,0.049564
1755.0,0.049427
1760.0,0.049692
1765.0,0.04984
1770.0,0.049851
1775.0,0.050001
1780.0,0.050106
1785.0,0.050168
1790.0,0.050027
1795.0,0.050126
1800.0,0.050225
1805.0,0.050002
1810.0,0.050116
1815.0,0.050049
1820.0,0.050147
1825.0,0.050123
1830.0,0.050232
1835.0,0.050305
1840.0,0.05
1845.0,0.050332
1850.0,0.050288
1855.0,0.05062
1860.0,0.050513
1865.0,0.050536
1870.0,0.050988
1875.0,0.050489
1880.0,0.050501
1885.0,0.050702
1890.0,0.051051
1895.0,0.050872
1900.0,0.050723
1905.0,0.050952
1910.0,0.050985
1915.0,0.051227
1920.0,0.051239
1925.0,0.051121
1930.0,0.051287
1935.0,0.051093
1940.0,0.051505
1945.0,0.051398
1950.0,0.051317
1955.0,0.05155
1960.0,0.051512
1965.0,0.051887
1970.0,0.051786
1975.0,0.051773
1980.0,0.051689
1985.0,0.051809
1990.0,0.051821
1995.0,0.052043
2000.0,0.051943
2005.0,0.052134
2010.0,0.0521
2015.0,0.052161
2020.0,0.05247
2025.0,0.052171
2030.0,0.052284
2035.0,0.052383
2040.0,0.052471
2045.0,0.052458
2050.0,0.052304
2055.0,0.05269
2060.0,0.052944
2065.0,0.052555
2070.0,0.052537
2075.0,0.052615
2080.0,0.052817
2085.0,0.05303
2090.0,0.052878
2095.0,0.053205
2100.0,0.053092
2105.0,0.053228
2110.0,0.053397
2115.0,0.053325
2120.0,0.053238
2125.0,0.053546
2130.0,0.053511
2135.0,0.053477
2140.0,0.053506
2145.0,0.053466
2150.0,0.053534
2155.0,0.053409
2160.0,0.053393
2165.0,0.053577
2170.0,0.053389
2175.0,0.053486
2180.0,0.053342
2185.0,0.053702
2190.0,0.053731
2195.0,0.053747
2200.0,0.053744
2205.0,0.053775
2210.0,0.053764
2215.0,0.053803
2220.0,0.053727
2225.0,0.053988
2230.0,0.054121
2235.0,0.054205
2240.0,0.054216
2245.0,0.054232
2250.0,0.054321
2255.0,0.054059
2260.0,0.05458
2265.0,0.054468
2270.0,0.054606
2275.0,0.054711
2280.0,0.05465
2285.0,0.054943
2290.0,0.054684
2295.0,0.054912
2300.0,0.054851
2305.0,0.054857
2310.0,0.055028
2315.0,0.054945
2320.0,0.054753
2325.0,0.054968
2330.0,0.055398
2335.0,0.055268
2340.0,0.055237
2345.0,0.055353
2350.0,0.055221
2355.0,0.055447
2360.0,0.055046
2365.0,0.055052
2370.0,0.055155
2375.0,0.055293
2380.0,0.055118
2385.0,0.055371
2390.0,0.05541
2395.0,0.055184
2400.0,0.055317
2405.0,0.055483
2410.0,0.055788
2415.0,0.055702
2420.0,0.055657
2425.0,0.055735
2430.0,0.055932
2435.0,0.055674
2440.0,0.055824
2445.0,0.055683
2450.0,0.055754
2455.0,0.055863
2460.0,0.055684
2465.0,0.056098
2470.0,0.056064
2475.0,0.056055
2480.0,0.055994
2485.0,0.055918
2490.0,0.05607
2495.0,0.056071
2500.0,0.056107
2502.0,0.056136
2503.2,0.056273
2504.41,0.056254
2505.62,0.056134
2506.83,0.056042
2508.05,0.056142
2509.26,0.056196
2510.48,0.056113
2511.69,0.05615
2512.91,0.056135
2514.13,0.056003
2515.35,0.056131
2516.57,0.056163
2517.79,0.056235
2519.02,0.056331
2520.24,0.056352
2521.47,0.056467
2522.69,0.056466
2523.92,0.056095
2525.15,0.055989
2526.38,0.056289
2527.61,0.056345
2528.85,0.056112
2530.08,0.056131
2531.32,0.056345
2532.55,0.056287
2533.79,0.056135
2535.03,0.055805
2536.27,0.055767
2537.51,0.05592
2538.75,0.056044
2540.0,0.055991
2541.24,0.055974
2542.49,0.055972
2543.74,0.056223
2544.99,0.056242
2546.24,0.055879
2547.49,0.055806
2548.74,0.055964
2549.99,0.05597
2551.25,0.055946
2552.5,0.055891
2553.76,0.055983
2555.02,0.056032
2556.28,0.055973
2557.54,0.05591
2558.8,0.055994
2560.07,0.056019
2561.33,0.055925
2562.6,0.05611
2563.86,0.056425
2565.13,0.056273
2566.4,0.056106
2567.67,0.056025
2568.95,0.056043
2570.22,0.05626
2571.5,0.056461
2572.77,0.056304
2574.05,0.056155
2575.33,0.05618
2576.61,0.05607
2577.89,0.055912
2579.17,0.056166
2580.46,0.056331
2581.74,0.056176
2583.03,0.055944
2584.31,0.055867
2585.6,0.055992
2586.89,0.055904
2588.19,0.055823
2589.48,0.055921
2590.77,0.056067
2592.07,0.056056
2593.36,0.05605
2594.66,0.056232
2595.96,0.056422
2597.26,0.056275
2598.56,0.055931
2599.87,0.055817
2601.17,0.055875
2602.48,0.055833
2603.78,0.055892
2605.09,0.05599
2606.4,0.055971
2607.71,0.05612
2609.03,0.056163
2610.34,0.056205
2611.66,0.056192
2612.97,0.056084
2614.29,0.055968
2615.61,0.05585
2616.93,0.055888
2618.25,0.0559
2619.57,0.0558
2620.9,0.055812
2622.22,0.055796
2623.55,0.055833
2624.88,0.055989
2626.21,0.056163
2627.54,0.056249
2628.87,0.056155
2630.21,0.056023
2631.54,0.055901
2632.88,0.055827
2634.21,0.055841
2635.55,0.055928
2636.89,0.055817
2638.24,0.055843
2639.58,0.055753
2640.92,0.055771
2642.27,0.05576
2643.62,0.055817
2644.97,0.055894
2646.32,0.055905
2647.67,0.055856
2649.02,0.056015
2650.38,0.056038
2651.73,0.055939
2653.09,0.055737
2654.45,0.055854
2655.81,0.055877
2657.17,0.055666
2658.53,0.055464
2659.89,0.055347
2661.26,0.05554
2662.63,0.055619
2664.0,0.055711
2665.36,0.055825
2666.74,0.055793
2668.11,0.0558
2669.48,0.055935
2670.86,0.055884
2672.23,0.055883
2673.61,0.055763
2674.99,0.055446
2676.37,0.055282
2677.76,0.055311
2679.14,0.055418
2680.52,0.055524
2681.91,0.055362
2683.3,0.055115
2684.69,0.055034
2686.08,0.055114
2687.47,0.055017
2688.87,0.055062
2690.26,0.055199
2691.66,0.055284
2693.06,0.055166
2694.46,0.055086
2695.86,0.05517
2697.26,0.055148
2698.66,0.054853
2700.07,0.054669
2701.48,0.054728
2702.89,0.054829
2704.3,0.05479
2705.71,0.054715
2707.12,0.054836
2708.53,0.05492
2709.95,0.054785
2711.37,0.054633
2712.79,0.054599
2714.21,0.054889
2715.63,0.055045
2717.05,0.055046
2718.48,0.055009
2719.9,0.055026
2721.33,0.054932
2722.76,0.054788
2724.19,0.054799
2725.62,0.055006
2727.06,0.054877
2728.49,0.054843
2729.93,0.054666
2731.37,0.054506
2732.81,0.054705
2734.25,0.054823
2735.69,0.054863
2737.14,0.054633
2738.58,0.054583
2740.03,0.054801
2741.48,0.054837
2742.93,0.054846
2744.38,0.054783
2745.83,0.054622
2747.29,0.054604
2748.75,0.054788
2750.2,0.054837
2751.66,0.05461
2753.13,0.054606
2754.59,0.054809
2756.05,0.054862
2757.52,0.054783
2758.99,0.054726
2760.46,0.054659
2761.93,0.054613
2763.4,0.054402
2764.87,0.054317
2766.35,0.054552
2767.82,0.054651
2769.3,0.054517
2770.78,0.054472
2772.26,0.054524
2773.75,0.054574
2775.23,0.054378
2776.72,0.054377
2778.21,0.054413
2779.7,0.054354
2781.19,0.054312
2782.68,0.054472
2784.18,0.054438
2785.67,0.054275
2787.17,0.05419
2788.67,0.054104
2790.17,0.054419
2791.67,0.054581
2793.18,0.054476
2794.68,0.054475
2796.19,0.054365
2797.7,0.054221
2799.21,0.054076
2800.72,0.053982
2802.24,0.054076
2803.75,0.05415
2805.27,0.053939
2806.79,0.053779
2808.31,0.053739
2809.83,0.053775
2811.35,0.053891
2812.88,0.053732
2814.41,0.053681
2815.93,0.053827
2817.46,0.05386
2819.0,0.053802
2820.53,0.053843
2822.07,0.053674
2823.6,0.053552
2825.14,0.053482
2826.68,0.053563
2828.22,0.05355
2829.77,0.053549
2831.31,0.053713
2832.86,0.053664
2834.41,0.053718
2835.96,0.053913
2837.51,0.053798
2839.07,0.05359
2840.62,0.05357
2842.18,0.053681
2843.74,0.053664
2845.3,0.053693
2846.86,0.053736
2848.43,0.053689
2849.99,0.053659
2851.56,0.053738
2853.13,0.053792
2854.7,0.053821
2856.27,0.053879
2857.85,0.053861
2859.42,0.053804
2861.0,0.053808
2862.58,0.053797
2864.16,0.053672
2865.75,0.053584
2867.33,0.053646
2868.92,0.053663
2870.51,0.053597
2872.1,0.053676
2873.69,0.053716
2875.28,0.053643
2876.88,0.053569
2878.48,0.05352
2880.07,0.053427
2881.68,0.053408
2883.28,0.053423
2884.88,0.053595
2886.49,0.053724
2888.1,0.053682
2889.71,0.053552
2891.32,0.053455
2892.93,0.05337
2894.55,0.053349
2896.16,0.053354
2897.78,0.053494
2899.4,0.053649
2901.03,0.053597
2902.65,0.053557
2904.28,0.053534
2905.91,0.053422
2907.54,0.053284
2909.17,0.053281
2910.8,0.053431
2912.44,0.053424
2914.07,0.053445
2915.71,0.05356
2917.35,0.053424
2918.99,0.053286
2920.64,0.053332
2922.29,0.053339
2923.93,0.053278
2925.58,0.053405
2927.24,0.053476
2928.89,0.05329
2930.55,0.053291
2932.2,0.053358
2933.86,0.053341
2935.52,0.053224
2937.19,0.053204
2938.85,0.053338
2940.52,0.053223
2942.19,0.053161
2943.86,0.053188
2945.53,0.053183
2947.21,0.053164
2948.88,0.053084
2950.56,0.053116
2952.24,0.053095
2953.92,0.053159
2955.61,0.053273
2957.29,0.053401
2958.98,0.053395
2960.67,0.053396
2962.36,0.053283
2964.06,0.053308
2965.75,0.053448
2967.45,0.05343
2969.15,0.053241
2970.85,0.053201
2972.55,0.053309
2974.26,0.053356
2975.97,0.053268
2977.68,0.053161
2979.39,0.053295
2981.1,0.053409
2982.82,0.053378
2984.53,0.053249
2986.25,0.053186
2987.97,0.053352
2989.7,0.053444
2991.42,0.053269
2993.15,0.053257
2994.88,0.053302
2996.61,0.053228
2998.34,0.053226
3000.08,0.053236
3001.82,0.053274
3003.55,0.053324
3005.3,0.053373
3007.04,0.053371
3008.78,0.053397
3010.53,0.053312
3012.28,0.053242
3014.03,0.05329
3015.79,0.053253
3017.54,0.053232
3019.3,0.053324
3021.06,0.05353
3022.82,0.053572
3024.58,0.053505
3026.35,0.053463
3028.12,0.053505
3029.89,0.05355
3031.66,0.053522
3033.43,0.053482
3035.21,0.053442
3036.99,0.053493
3038.77,0.053515
3040.55,0.053542
3042.33,0.053538
3044.12,0.053461
3045.91,0.053422
3047.7,0.053506
3049.49,0.053525
3051.29,0.053538
3053.08,0.053549
3054.88,0.053457
3056.68,0.053276
3058.49,0.05326
3060.29,0.053396
3062.1,0.053616
3063.91,0.053622
3065.72,0.053486
3067.54,0.053472
3069.35,0.053575
3071.17,0.053562
3072.99,0.053435
3074.81,0.053436
3076.64,0.053597
3078.47,0.053617
3080.29,0.053619
3082.13,0.053603
3083.96,0.053603
3085.79,0.053677
3087.63,0.053565
3089.47,0.05355
3091.31,0.053641
3093.16,0.05359
3095.01,0.053464
3096.85,0.05343
3098.71,0.053434
3100.56,0.053482
3102.41,0.05353
3104.27,0.053523
3106.13,0.053654
3107.99,0.053629
3109.86,0.053531
3111.73,0.053517
3113.59,0.053571
3115.47,0.053625
3117.34,0.053593
3119.21,0.053582
3121.09,0.053613
3122.97,0.053594
3124.86,0.05372
3126.74,0.05366
3128.63,0.05359
3130.52,0.053573
3132.41,0.053577
3134.3,0.053483
3136.2,0.053537
3138.1,0.05362
3140.0,0.053544
3141.9,0.053541
3143.81,0.053558
3145.71,0.053558
3147.62,0.053682
3149.54,0.05371
3151.45,0.053773
3153.37,0.053794
3155.29,0.053567
3157.21,0.053396
3159.13,0.053433
3161.06,0.053531
3162.99,0.05364
3164.92,0.053632
3166.85,0.053591
3168.79,0.053667
3170.72,0.053706
3172.67,0.053713
3174.61,0.053726
3176.55,0.053693
3178.5,0.05363
3180.45,0.053599
3182.4,0.053669
3184.36,0.053815
3186.32,0.053902
3188.27,0.053839
3190.24,0.053728
3192.2,0.053735
3194.17,0.053704
3196.14,0.053505
3198.11,0.053506
3200.08,0.05364
3202.06,0.053753
3204.04,0.053767
3206.02,0.053749
3208.0,0.053623
3209.99,0.053481
3211.98,0.053659
3213.97,0.053764
3215.96,0.053748
3217.96,0.053748
3219.96,0.053795
3221.96,0.053864
3223.96,0.053872
3225.97,0.053857
3227.98,0.053756
3229.99,0.053684
3232.0,0.053704
3234.02,0.053773
3236.04,0.053779
3238.06,0.053685
3240.08,0.053677
3242.11,0.053776
3244.14,0.053861
3246.17,0.053899
3248.2,0.053838
3250.24,0.053731
3252.28,0.053726
3254.32,0.05377
3256.37,0.053761
3258.41,0.053771
3260.46,0.053813
3262.51,0.053909
3264.57,0.053942
3266.63,0.05386
3268.69,0.053836
3270.75,0.053913
3272.81,0.053897
3274.88,0.053817
3276.95,0.053841
3279.02,0.053931
3281.1,0.053938
3283.18,0.053889
3285.26,0.053903
3287.34,0.053914
3289.43,0.053903
3291.51,0.053886
3293.61,0.053998
3295.7,0.053984
3297.8,0.053834
3299.9,0.053814
3302.0,0.053805
3304.1,0.053832
3306.21,0.053885
3308.32,0.053957
3310.43,0.054066
3312.55,0.054048
3314.66,0.054081
3316.79,0.054131
3318.91,0.053994
3321.03,0.053846
3323.16,0.054005
3325.29,0.054118
3327.43,0.054152
3329.57,0.054145
3331.71,0.054158
3333.85,0.054156
3335.99,0.054132
3338.14,0.054131
3340.29,0.054103
3342.45,0.05409
3344.6,0.054123
3346.76,0.054227
3348.92,0.054204
3351.09,0.054161
3353.26,0.054072
3355.43,0.054044
3357.6,0.054077
3359.78,0.054112
3361.96,0.054134
3364.14,0.054148
3366.32,0.054197
3368.51,0.054154
3370.7,0.054199
3372.89,0.054281
3375.09,0.054245
3377.29,0.054177
3379.49,0.054109
3381.69,0.05416
3383.9,0.054208
3386.11,0.054137
3388.32,0.054191
3390.54,0.054227
3392.76,0.054149
3394.98,0.054171
3397.21,0.054223
3399.43,0.054284
3401.66,0.054338
3403.9,0.054304
3406.13,0.054257
3408.37,0.054241
3410.61,0.054324
3412.86,0.054488
3415.11,0.054554
3417.36,0.054579
3419.61,0.054534
3421.87,0.054487
3424.13,0.054429
3426.39,0.054437
3428.66,0.054504
3430.93,0.054518
3433.2,0.054455
3435.48,0.05444
3437.76,0.054496
3440.04,0.054542
3442.32,0.054614
3444.61,0.054547
3446.9,0.054512
3449.19,0.054501
3451.49,0.054415
3453.79,0.054473
3456.09,0.054569
3458.4,0.054577
3460.7,0.054516
3463.02,0.054448
3465.33,0.054436
3467.65,0.054485
3469.97,0.054523
3472.29,0.054495
3474.62,0.054504
3476.95,0.05453
3479.29,0.054504
3481.62,0.054439
3483.96,0.054484
3486.3,0.05455
3488.65,0.054612
3491.0,0.054626
3493.35,0.054687
3495.71,0.054681
3498.07,0.054665
3500.43,0.054697
3502.79,0.054694
3505.16,0.054739
3507.53,0.054805
3509.91,0.054777
3512.29,0.054844
3514.67,0.054992
3517.05,0.054943
3519.44,0.054879
3521.83,0.054931
3524.23,0.054987
3526.62,0.054972
3529.02,0.054979
3531.43,0.054999
3533.83,0.054947
3536.24,0.05494
3538.66,0.055024
3541.08,0.055064
3543.5,0.055049
3545.92,0.055084
3548.35,0.055152
3550.78,0.05521
3553.21,0.055213
3555.65,0.055208
3558.09,0.055229
3560.53,0.055212
3562.98,0.055222
3565.43,0.055292
3567.88,0.05529
3570.34,0.055253
3572.8,0.055204
3575.27,0.055178
3577.73,0.055266
3580.2,0.05526
3582.68,0.05526
3585.16,0.055359
3587.64,0.055403
3590.12,0.055414
3592.61,0.055422
3595.1,0.055456
3597.6,0.055457
3600.09,0.055462
3602.6,0.055386
3605.1,0.055412
3607.61,0.055533
3610.12,0.055622
3612.64,0.055678
3615.16,0.05568
3617.68,0.055688
3620.21,0.055658
3622.74,0.055577
3625.27,0.055616
3627.81,0.055705
3630.35,0.05572
3632.89,0.055732
3635.44,0.055735
3637.99,0.055762
3640.54,0.0558
3643.1,0.05585
3645.66,0.055862
3648.23,0.055877
3650.8,0.055831
3653.37,0.055789
3655.95,0.055785
3658.53,0.055867
3661.11,0.055956
3663.7,0.055871
3666.29,0.05588
3668.89,0.05591
3671.48,0.055891
3674.09,0.055931
3676.69,0.055974
3679.3,0.055971
3681.91,0.055999
3684.53,0.056067
3687.15,0.05609
3689.78,0.056098
3692.4,0.056135
3695.04,0.056168
3697.67,0.056222
3700.31,0.056184
3702.95,0.056073
3705.6,0.056104
3708.25,0.056206
3710.91,0.056223
3713.56,0.056239
3716.23,0.056227
3718.89,0.056249
3721.56,0.056314
3724.23,0.056363
3726.91,0.056316
3729.59,0.056294
3732.28,0.056346
3734.97,0.056415
3737.66,0.056461
3740.36,0.05646
3743.06,0.056476
3745.76,0.056467
3748.47,0.056495
3751.18,0.056467
3753.9,0.056432
3756.62,0.056509
3759.34,0.056597
3762.07,0.056623
3764.8,0.056526
3767.54,0.056513
3770.28,0.056611
3773.02,0.056675
3775.77,0.056751
3778.52,0.056729
3781.28,0.056645
3784.04,0.056666
3786.8,0.056694
3789.57,0.056754
3792.34,0.056786
3795.12,0.056721
3797.9,0.056747
3800.69,0.056825
3803.47,0.056805
3806.27,0.056776
3809.06,0.056855
3811.86,0.056906
3814.67,0.056853
3817.48,0.056843
3820.29,0.056913
3823.11,0.056979
3825.93,0.057027
3828.76,0.057043
3831.59,0.056969
3834.42,0.056934
3837.26,0.056967
3840.1,0.056983
3842.95,0.056978
3845.8,0.057044
3848.65,0.05712
3851.51,0.057163
3854.38,0.057167
3857.24,0.057184
3860.12,0.057235
3862.99,0.05719
3865.87,0.057161
3868.76,0.057171
3871.65,0.057258
3874.54,0.057284
3877.44,0.057271
3880.34,0.057351
3883.25,0.057372
3886.16,0.057296
3889.07,0.05726
3891.99,0.057301
3894.92,0.057343
3897.85,0.057391
3900.78,0.057403
3903.72,0.057413
3906.66,0.057394
3909.6,0.05742
3912.55,0.057465
3915.51,0.05751
3918.47,0.057587
3921.43,0.05759
3924.4,0.0576
3927.38,0.057609
3930.35,0.057599
3933.33,0.057542
3936.32,0.057447
3939.31,0.057463
3942.31,0.057535
3945.31,0.057575
3948.31,0.057636
3951.32,0.05762
3954.34,0.057655
3957.35,0.057723
3960.38,0.057648
3963.41,0.057585
3966.44,0.0576
3969.48,0.057622
3972.52,0.057631
3975.56,0.05767
3978.61,0.057649
3981.67,0.057596
3984.73,0.057634
3987.8,0.057681
3990.87,0.057729
3993.94,0.057782
3997.02,0.057882
4000.1,0.057956
4003.19,0.058011
4006.29,0.057965
4009.39,0.057954
4012.49,0.05801
4015.6,0.058131
4018.71,0.058209
4021.83,0.058277
4024.95,0.058364
4028.08,0.058359
4031.21,0.058322
4034.35,0.058284
4037.49,0.058294
4040.64,0.058362
4043.79,0.058353
4046.94,0.058398
4050.11,0.058472
4053.27,0.058542
4056.44,0.058606
4059.62,0.058603
4062.8,0.05861
4065.99,0.05869
4069.18,0.058677
4072.38,0.058617
4075.58,0.058666
4078.78,0.058743
4082.0,0.058788
4085.21,0.058786
4088.43,0.058775
4091.66,0.058823
4094.89,0.058858
4098.13,0.058866
4101.37,0.058865
4104.62,0.058872
4107.87,0.05892
4111.13,0.058939
4114.39,0.058942
4117.66,0.059029
4120.93,0.05911
4124.21,0.059084
4127.5,0.059091
4130.79,0.059137
4134.08,0.059146
4137.38,0.059178
4140.68,0.05924
4143.99,0.059212
4147.31,0.059243
4150.63,0.059258
4153.95,0.059227
4157.29,0.059275
4160.62,0.059284
4163.96,0.059235
4167.31,0.059292
4170.66,0.059427
4174.02,0.059434
4177.39,0.059397
4180.75,0.059433
4184.13,0.059468
4187.51,0.059442
4190.89,0.059451
4194.28,0.059503
4197.68,0.059512
4201.08,0.059576
4204.49,0.059639
4207.9,0.059757
4211.32,0.059838
4214.74,0.059763
4218.17,0.059715
4221.61,0.059777
4225.05,0.059834
4228.5,0.059856
4231.95,0.05991
4235.4,0.059954
4238.87,0.060074
4242.34,0.060108
4245.81,0.060053
4249.29,0.060093
4252.78,0.060146
4256.27,0.060098
4259.77,0.06003
4263.27,0.060086
4266.78,0.060211
4270.29,0.060225
4273.81,0.060229
4277.34,0.060259
4280.87,0.060296
4284.41,0.060303
4287.95,0.060305
4291.5,0.060295
4295.06,0.060353
4298.62,0.060438
4302.19,0.060475
4305.76,0.06048
4309.34,0.060437
4312.92,0.060429
4316.52,0.060449
4320.11,0.060463
4323.72,0.060469
4327.32,0.060478
4330.94,0.060524
4334.56,0.060622
4338.19,0.060638
4341.82,0.060585
4345.46,0.060608
4349.11,0.060641
4352.76,0.060633
4356.42,0.060686
4360.08,0.060739
4363.75,0.060685
4367.43,0.060685
4371.11,0.06077
4374.8,0.060774
4378.49,0.060781
4382.19,0.060865
4385.9,0.060925
4389.61,0.060941
4393.33,0.060934
4397.06,0.060924
4400.79,0.060957
4404.53,0.061017
4408.28,0.061093
4412.03,0.061086
4415.79,0.061055
4419.55,0.061102
4423.32,0.061148
4427.1,0.061132
4430.88,0.06115
4434.68,0.06119
4438.47,0.061258
4442.28,0.061269
4446.08,0.061299
4449.9,0.061368
4453.72,0.061357
4457.55,0.061316
4461.39,0.061333
4465.23,0.061343
4469.08,0.061407
4472.94,0.061492
4476.8,0.061515
4480.67,0.061477
4484.55,0.061488
4488.43,0.061529
4492.32,0.061547
4496.21,0.06159
4500.12,0.061658
4504.03,0.061727
4507.94,0.061764
4511.87,0.061762
4515.8,0.061717
4519.73,0.061708
4523.68,0.061698
4527.63,0.061681
4531.59,0.061726
4535.55,0.061754
4539.52,0.061805
4543.5,0.061905
4547.49,0.0619
4551.48,0.061887
4555.48,0.061905
4559.49,0.06192
4563.5,0.06195
4567.52,0.061956
4571.55,0.061949
4575.58,0.061945
4579.63,0.061968
4583.67,0.062024
4587.73,0.062067
4591.79,0.06208
4595.86,0.06214
4599.94,0.062156
4604.03,0.06217
4608.12,0.062189
4612.22,0.062224
4616.33,0.062279
4620.44,0.062288
4624.56,0.062248
4628.69,0.062287
4632.83,0.062341
4636.97,0.062359
4641.12,0.062332
4645.28,0.062335
4649.45,0.062357
4653.62,0.062391
4657.8,0.062427
4661.99,0.06245
4666.19,0.062472
4670.39,0.062481
4674.6,0.06253
4678.82,0.06254
4683.05,0.062545
4687.28,0.062605
4691.52,0.062665
4695.77,0.062702
4700.03,0.062736
4704.3,0.062778
4708.57,0.062763
4712.85,0.062776
4717.14,0.06284
4721.43,0.062865
4725.74,0.062926
4730.05,0.062971
4734.37,0.062951
4738.7,0.06293
4743.03,0.062974
4747.38,0.063027
4751.73,0.063031
4756.09,0.063065
4760.45,0.063088
4764.83,0.063116
4769.21,0.063168
4773.6,0.063178
4778.0,0.063226
4782.41,0.063243
4786.83,0.063256
4791.25,0.063266
4795.68,0.063277
4800.13,0.063314
4804.57,0.063298
4809.03,0.063287
4813.5,0.063328
4817.97,0.06338
4822.45,0.063408
4826.94,0.063426
4831.44,0.063446
4835.95,0.063509
4840.46,0.063527
4844.99,0.063524
4849.52,0.063554
4854.06,0.063628
4858.61,0.063683
4863.17,0.063704
4867.73,0.06372
4872.31,0.063717
4876.89,0.063696
4881.48,0.063731
4886.08,0.063797
4890.69,0.063808
4895.31,0.063846
4899.94,0.063851
4904.57,0.063891
4909.22,0.063918
4913.87,0.063963
4918.53,0.064044
4923.21,0.064046
4927.88,0.064032
4932.57,0.06402
4937.27,0.064043
4941.98,0.064079
4946.69,0.064153
4951.42,0.064228
4956.15,0.064216
4960.9,0.064162
4965.65,0.064197
4970.41,0.064256
4975.18,0.064281
4979.96,0.064276
4984.75,0.064281
4989.54,0.064289
4994.35,0.064352
4999.17,0.064389
5003.99,0.06435
5008.83,0.064349
5013.67,0.064352
5018.52,0.064378
5023.39,0.064439
5028.26,0.064517
5033.14,0.064552
5038.03,0.064567
5042.93,0.064573
5047.84,0.064652
5052.76,0.064725
5057.69,0.064765
5062.63,0.064803
5067.58,0.064838
5072.54,0.064896
5077.51,0.064959
5082.49,0.065012
5087.47,0.065047
5092.47,0.06503
5097.48,0.065044
5102.5,0.065138
5107.52,0.065202
5112.56,0.065207
5117.61,0.065188
5122.66,0.065247
5127.73,0.065285
5132.81,0.065296
5137.89,0.065336
5142.99,0.06537
5148.1,0.065373
5153.22,0.065414
5158.34,0.065443
5163.48,0.065466
5168.63,0.065503
5173.79,0.065522
5178.96,0.065546
5184.13,0.065559
5189.32,0.065556
5194.52,0.06557
5199.73,0.065582
5204.96,0.065642
5210.19,0.065715
5215.43,0.065732
5220.68,0.06572
5225.94,0.065728
5231.22,0.06575
5236.5,0.065794
5241.79,0.06584
5247.1,0.065846
5252.42,0.065881
5257.74,0.065929
5263.08,0.065941
5268.43,0.065936
5273.79,0.06595
5279.16,0.066006
5284.54,0.066015
5289.93,0.066015
5295.34,0.066025
5300.75,0.066051
5306.18,0.066111
5311.61,0.066147
5317.06,0.066169
5322.52,0.066201
5327.99,0.066227
5333.47,0.066234
5338.96,0.066227
5344.47,0.066238
5349.98,0.066282
5355.51,0.066336
5361.05,0.066388
5366.6,0.066418
5372.16,0.066417
5377.73,0.066442
5383.32,0.066431
5388.91,0.066473
5394.52,0.066516
5400.14,0.066501
5405.77,0.066542
5411.41,0.066591
5417.07,0.066619
5422.74,0.066668
5428.41,0.066706
5434.1,0.066687
5439.81,0.066682
5445.52,0.066698
5451.25,0.066738
5456.98,0.066747
5462.73,0.066777
5468.5,0.066831
5474.27,0.066839
5480.06,0.066883
5485.86,0.066915
5491.67,0.066925
5497.49,0.066926
5503.33,0.066917
5509.18,0.066921
5515.04,0.066939
5520.91,0.066964
5526.8,0.066924
5532.69,0.066885
5538.61,0.066888
5544.53,0.06691
5550.47,0.066951
5556.41,0.066908
5562.38,0.066826
5568.35,0.066771
5574.34,0.066723
5580.34,0.066728
5586.35,0.066762
5592.38,0.066837
5598.42,0.066947
5604.47,0.067081
5610.54,0.067206
5616.61,0.067267
5622.71,0.067228
5628.81,0.067232
5634.93,0.067298
5641.06,0.067356
5647.21,0.067437
5653.36,0.067402
5659.54,0.067368
5665.72,0.067407
5671.92,0.067459
5678.13,0.067518
5684.36,0.067526
5690.6,0.06754
5696.85,0.067594
5703.12,0.067584
5709.4,0.06765
5715.69,0.06776
5722.0,0.067719
5728.33,0.067713
5734.66,0.067764
5741.01,0.067796
5747.38,0.067798
5753.76,0.067838
5760.15,0.067798
5766.56,0.067874
5772.98,0.06797
5779.41,0.067894
5785.86,0.06792
5792.33,0.06795
5798.81,0.067956
5805.3,0.067994
5811.81,0.067991
5818.33,0.06804
5824.87,0.068161
5831.42,0.068128
5837.99,0.068041
5844.57,0.068065
5851.17,0.068128
5857.78,0.068185
5864.41,0.068227
5871.05,0.068246
5877.7,0.068258
5884.38,0.068412
5891.06,0.068338
5897.76,0.068322
5904.48,0.068381
5911.21,0.06829
5917.96,0.068296
5924.73,0.068302
5931.5,0.068348
5938.3,0.068422
5945.11,0.068375
5951.93,0.06829
5958.78,0.068319
5965.63,0.068354
5972.51,0.068453
5979.39,0.068458
5986.3,0.068469
5993.22,0.068516
6000.16,0.068481
6007.11,0.068433
6014.08,0.068491
6021.06,0.068544
6028.06,0.068535
6035.08,0.068546
6042.12,0.068565
6049.17,0.068671
6056.23,0.068777
6063.32,0.068601
6070.42,0.068644
6077.53,0.068726
6084.67,0.068664
6091.82,0.068591
6098.98,0.068585
6106.17,0.068616
6113.37,0.068732
6120.58,0.068831
6127.82,0.068715
6135.07,0.068661
6142.34,0.068697
6149.63,0.068692
6156.93,0.068729
6164.25,0.068753
6171.59,0.068764
6178.95,0.068755
6186.32,0.068852
6193.71,0.068908
6201.12,0.068836
6208.54,0.068797
6215.99,0.068796
6223.45,0.068818
6230.93,0.06882
6238.43,0.068811
6245.95,0.068811
6253.48,0.06883
6261.03,0.068822
6268.6,0.068851
6276.19,0.068903
6283.8,0.068951
6291.43,0.068983
6299.07,0.068972
6306.73,0.068952
6314.42,0.068979
6322.12,0.069013
6329.84,0.069018
6337.57,0.069058
6345.33,0.069191
6353.11,0.069264
6360.9,0.069198
6368.72,0.069257
6376.55,0.06935
6384.4,0.069354
6392.27,0.06935
6400.17,0.069376
6408.08,0.06944
6416.01,0.069645
6423.96,0.069709
6431.93,0.06961
6439.92,0.069594
6447.93,0.069575
6455.96,0.069641
6464.01,0.069625
6472.08,0.069611
6480.17,0.069642
6488.28,0.06968
6496.41,0.069768
6504.56,0.069753
6512.73,0.069588
6520.92,0.069559
6529.14,0.069509
6537.37,0.06945
6545.63,0.06944
6553.9,0.069391
6562.2,0.069348
6570.51,0.069359
6578.85,0.069396
6587.21,0.069219
6595.59,0.069113
6603.99,0.069021
6612.42,0.068951
6620.86,0.068917
6629.33,0.068821
6637.82,0.068818
6646.33,0.068775
6654.86,0.068586
6663.41,0.068476
6671.99,0.068447
6680.59,0.068437
6689.21,0.068354
6697.85,0.068209
6706.51,0.068183
6715.2,0.068224
6723.91,0.068112
6732.64,0.068005
6741.4,0.067946
6750.18,0.067882
6758.98,0.067797
6767.8,0.06773
6776.65,0.067725
6785.52,0.067703
6794.41,0.067724
6803.33,0.067606
6812.27,0.067473
6821.23,0.0674
6830.22,0.067394
6839.23,0.067309
6848.26,0.067238
6857.32,0.067238
6866.4,0.067316
6875.51,0.067293
6884.64,0.067161
6893.8,0.067131
6902.98,0.067105
6912.18,0.067122
6921.41,0.0671
6930.66,0.067132
6939.94,0.067166
6949.24,0.067191
6958.57,0.067262
6967.92,0.067335
6977.3,0.06725
6986.7,0.06721
6996.13,0.067208
7005.59,0.067213
7015.07,0.067162
7024.57,0.067179
7034.1,0.067239
7043.66,0.067371
7053.25,0.067515
7062.85,0.067517
7072.49,0.067574
7082.15,0.067672
7091.84,0.067762
7101.55,0.067813
7111.3,0.0679
7121.06,0.068031
7130.86,0.068066
7140.68,0.068086
7150.53,0.068165
7160.41,0.068246
7170.31,0.068343
7180.24,0.068424
7190.2,0.068487
7200.19,0.068578
7210.2,0.068644
7220.24,0.068728
7230.31,0.068804
7240.41,0.068924
7250.54,0.069009
7260.69,0.069039
7270.88,0.069101
7281.09,0.069219
7291.33,0.069276
7301.6,0.069275
7311.9,0.06935
7322.22,0.069446
7332.58,0.069511
7342.97,0.069593
7353.38,0.069632
7363.83,0.069677
7374.3,0.069743
7384.81,0.06979
7395.34,0.069824
7405.91,0.069866
7416.5,0.069925
7427.13,0.069948
7437.78,0.069986
7448.47,0.070008
7459.19,0.070039
7469.94,0.070134
7480.71,0.070183
7491.52,0.070161
7502.37,0.070126
7513.24,0.070152
7524.14,0.070183
7535.08,0.070223
7546.05,0.070233
7557.05,0.070169
7568.08,0.070148
7579.15,0.070199
7590.24,0.070254
7601.37,0.070256
7612.53,0.070246
7623.73,0.070263
7634.96,0.070254
7646.22,0.070267
7657.51,0.070294
7668.84,0.070312
7680.2,0.070346
7691.59,0.070357
7703.02,0.070322
7714.49,0.070325
7725.98,0.070334
7737.52,0.070329
7749.08,0.070372
7760.68,0.0704
7772.32,0.070343
7783.99,0.070303
7795.69,0.070271
7807.43,0.070254
7819.21,0.070246
7831.02,0.070232
7842.87,0.070191
7854.75,0.070161
7866.67,0.070173
7878.62,0.070169
7890.62,0.070154
7902.64,0.070208
7914.71,0.070243
7926.81,0.070195
7938.95,0.070154
7951.13,0.070095
7963.34,0.070011
7975.59,0.069967
7987.88,0.069947
8000.21,0.069965
8012.57,0.069914
8024.98,0.069822
8037.42,0.069786
8049.9,0.069739
8062.42,0.069702
8074.98,0.069666
8087.57,0.069609
8100.21,0.069558
8112.89,0.069489
8125.6,0.069409
8138.36,0.069388
8151.16,0.069328
8163.99,0.069279
8176.87,0.069278
8189.79,0.069216
8202.75,0.069183
8215.75,0.069167
8228.79,0.069164
8241.87,0.069167
8254.99,0.069118
8268.16,0.069058
8281.37,0.068999
8294.62,0.068973
8307.91,0.068964
8321.24,0.068957
8334.62,0.068908
8348.04,0.068827
8361.51,0.068757
8375.02,0.068722
8388.57,0.068735
8402.16,0.068696
8415.8,0.068601
8429.49,0.068523
8443.22,0.068458
8456.99,0.068415
8470.81,0.068353
8484.67,0.068321
8498.58,0.06829
8512.54,0.068252
8526.54,0.068231
8540.58,0.068175
8554.68,0.068088
8568.82,0.068071
8583.0,0.067998
8597.24,0.067905
8611.52,0.067903
8625.85,0.067981
8640.23,0.068004
8654.65,0.067948
8669.12,0.06797
8683.64,0.067991
8698.21,0.067991
8712.83,0.067997
8727.5,0.068027
8742.22,0.068041
8756.99,0.068072
8771.8,0.068145
8786.67,0.068194
8801.59,0.068192
8816.56,0.068221
8831.58,0.068329
8846.65,0.068437
8861.77,0.068532
8876.94,0.068568
8892.17,0.06859
8907.45,0.068557
8922.78,0.068485
8938.16,0.068486
8953.6,0.068523
8969.09,0.068511
8984.64,0.068431
9000.23,0.068423
9015.89,0.068358
9031.59,0.068154
9047.36,0.067979
9063.17,0.067826
9079.05,0.067705
9094.97,0.067618
9110.96,0.067518
9127.0,0.067372
9143.1,0.067221
9159.25,0.067092
9175.46,0.066934
9191.73,0.066757
9208.06,0.066579
9224.44,0.066424
9240.88,0.066284
9257.38,0.066214
9273.94,0.066264
9290.56,0.066443
9307.24,0.066529
9323.98,0.066528
9340.78,0.066504
9357.64,0.066458
9374.57,0.066448
9391.55,0.06638
9408.59,0.066301
9425.7,0.066237
9442.87,0.066172
9460.1,0.066143
9477.4,0.066102
9494.75,0.066065
9512.17,0.065994
9529.66,0.065908
9547.21,0.065903
9564.83,0.065966
9582.5,0.066003
9600.25,0.065989
9618.06,0.065992
9635.94,0.065995
9653.88,0.066011
9671.89,0.065976
9689.97,0.065849
9708.12,0.065631
9726.33,0.06539
9744.62,0.065182
9762.97,0.064941
9781.39,0.064719
9799.88,0.06456
9818.44,0.064335
9837.07,0.064184
9855.77,0.064128
9874.54,0.064033
9893.39,0.063919
9912.3,0.063862
9931.29,0.063826
9950.36,0.063815
9969.49,0.063827
9988.7,0.063748
10007.98,0.063729
10027.34,0.063746
10046.77,0.063726
10066.28,0.063671
10085.87,0.063618
10105.53,0.06361
10125.26,0.063597
10145.08,0.063538
10164.97,0.063414
10184.94,0.063284
10204.99,0.063174
10225.12,0.062958
10245.33,0.062838
10265.61,0.062765
10285.98,0.062645
10306.43,0.062511
10326.96,0.062334
10347.57,0.062123
10368.27,0.061944
10389.05,0.061805
10409.91,0.061769
10430.86,0.061902
10451.88,0.062056
10473.0,0.06207
10494.2,0.062024
10515.49,0.061984
10536.86,0.061946
10558.32,0.061918
10579.87,0.061794
10601.5,0.061688
10623.23,0.061598
10645.04,0.061526
10666.94,0.061468
10688.94,0.061428
10711.02,0.061314
10733.2,0.061249
10755.47,0.061216
10777.83,0.061176
10800.28,0.061103
10822.83,0.061011
10845.47,0.060962
10868.21,0.061025
10891.04,0.061152
10913.97,0.061162
10936.99,0.061212
10960.12,0.061295
10983.34,0.061229
11006.66,0.061195
11030.07,0.061269
11053.59,0.061237
11077.21,0.061294
11100.93,0.061321
11124.75,0.061289
11148.68,0.06131
11172.71,0.061249
11196.84,0.061264
11221.07,0.061322
11245.41,0.061339
11269.86,0.061415
11294.41,0.061464
11319.07,0.061263
11343.84,0.060961
11368.72,0.060715
11393.7,0.060572
11418.8,0.060447
11444.01,0.060284
11469.33,0.060244
11494.76,0.060485
11520.3,0.060829
11545.96,0.061037
11571.73,0.0611
11597.62,0.061238
11623.62,0.061375
11649.74,0.061311
11675.98,0.061202
11702.34,0.061145
11728.81,0.06101
11755.41,0.060938
11782.13,0.06087
11808.96,0.060715
11835.92,0.060618
11863.01,0.060691
11890.22,0.06075
11917.55,0.060689
11945.01,0.06053
11972.6,0.060362
12000.31,0.060237
12028.16,0.060154
12056.13,0.059996
12084.23,0.059885
12112.46,0.059768
12140.83,0.059609
12169.33,0.059401
12197.96,0.059157
12226.73,0.058974
12255.64,0.058867
12284.68,0.058743
12313.86,0.058589
12343.18,0.058467
12372.64,0.058253
12402.24,0.057987
12431.98,0.057769
12461.86,0.057509
12491.89,0.057338
12522.07,0.057269
12552.38,0.057194
12582.85,0.057062
12613.47,0.056839
12644.23,0.056579
12675.15,0.056419
12706.21,0.056258
12737.43,0.056119
12768.81,0.056034
12800.33,0.055952
12832.02,0.05583
12863.86,0.055754
12895.86,0.055711
12928.02,0.055652
12960.34,0.055613
12992.82,0.055551
13025.46,0.055486
13058.27,0.055381
13091.25,0.055308
13124.39,0.055375
13157.7,0.055365
13191.18,0.055375
13224.83,0.055453
13258.66,0.055647
13292.65,0.05574
13326.83,0.055859
13361.17,0.056091
13395.7,0.056324
13430.4,0.056526
13465.29,0.056828
13500.35,0.057025
13535.6,0.0573
13571.03,0.057698
13606.65,0.05801
13642.46,0.058365
13678.46,0.058729
13714.64,0.059091
13751.02,0.05944
13787.59,0.059704
13824.36,0.060071
13861.32,0.060518
13898.49,0.060845
13935.85,0.06101
13973.41,0.061287
14011.17,0.061551
14049.15,0.061864
14087.32,0.062244
14125.71,0.062725
14164.3,0.063315
14203.11,0.063721
14242.13,0.064062
14281.36,0.064414
14320.81,0.064726
14360.49,0.065152
14400.38,0.065637
14440.49,0.066043
14480.82,0.066269
14521.39,0.066517
14562.18,0.066884
14603.2,0.06719
14644.45,0.067396
14685.93,0.067744
14727.66,0.068054
14769.62,0.068273
14811.81,0.068458
14854.25,0.068615
14896.94,0.068807
14939.87,0.069011
14983.05,0.069268
15026.48,0.069478
15070.16,0.069526
15114.1,0.069512
15158.29,0.069572
15202.74,0.069761
15247.46,0.06994
15292.43,0.070045
15337.68,0.070004
15383.19,0.070008
15428.97,0.069977
15475.03,0.069968
15521.36,0.070043
15567.97,0.070028
15614.87,0.069929
15662.04,0.069944
15709.5,0.070013
15757.25,0.07006
15805.29,0.070204
15853.62,0.070457
15902.26,0.070699
15951.19,0.071017
16000.42,0.071307
16049.95,0.07151
16099.8,0.071976
16149.95,0.072551
16200.42,0.073142
16251.21,0.073815
16302.31,0.074715
16353.74,0.075757
16405.49,0.07664
16457.57,0.077512
16509.98,0.078534
16562.73,0.079565
16615.82,0.08052
16669.24,0.081468
16723.02,0.082518
16777.14,0.08365
16831.61,0.084893
16886.43,0.086228
16941.62,0.087522
16997.16,0.088726
17053.08,0.090256
17109.36,0.091733
17166.01,0.093152
17223.04,0.094714
17280.45,0.096345
17338.24,0.097878
17396.43,0.099159
17455.0,0.100561
17513.97,0.102148
17573.34,0.103695
17633.11,0.105201
17693.29,0.106312
17753.89,0.107492
17814.9,0.108333
17876.33,0.109032
17938.18,0.109581
18000.47,0.110043
18063.19,0.110256
18126.35,0.110123
18189.95,0.109879
18254.0,0.109366
18318.5,0.108572
18383.46,0.107829
18448.88,0.107087
18514.77,0.106442
18581.13,0.105659
18647.97,0.104653
18715.29,0.103735
18783.1,0.103112
18851.4,0.102379
18920.2,0.101286
18989.51,0.100493
19059.32,0.099838
19129.65,0.099054
19200.5,0.098605
19271.88,0.098236
19343.79,0.097615
19416.24,0.096787
19489.23,0.09618
19562.77,0.095751
19636.88,0.095357
19711.54,0.094988
19786.78,0.094536
19862.59,0.093763
19938.98,0.093342
20015.96,0.093099
20093.55,0.092762
20171.73,0.092296
20250.53,0.0918
20329.94,0.091568
20409.98,0.091381
20490.65,0.091145
20571.96,0.090838
20653.92,0.090296
20736.54,0.090265
20819.82,0.090343
20903.77,0.090179
20988.4,0.090127
21073.72,0.090171
21159.73,0.090249
21246.46,0.090197
21333.89,0.090247
21422.04,0.090199
21510.93,0.089846
21600.56,0.090197
21690.94,0.090399
21782.08,0.090364
21873.99,0.09065
21966.67,0.090753
22060.15,0.090841
22154.42,0.090697
22249.51,0.090768
22345.41,0.091275
22442.14,0.091596
22539.72,0.091845
22638.14,0.092154
22737.43,0.092487
22837.6,0.092618
22938.65,0.093039
23040.6,0.093317
23143.46,0.09348
23247.24,0.094048
23351.96,0.094579
23457.63,0.094958
23564.25,0.09554
23671.85,0.095796
23780.44,0.096072
23890.02,0.096472
24000.63,0.096543
24112.26,0.096546
24224.93,0.096613
24338.66,0.096436
24453.47,0.096766
24569.36,0.097393
24686.36,0.098442
24804.47,0.099498
24923.73,0.099368
25044.13,0.100165
25165.71,0.102131
25288.46,0.102656
25412.43,0.10232
25537.61,0.102621
25664.04,0.103619
25791.72,0.106273
25920.68,0.10719
