Database of Origin,University of Winnipeg Spectrophotometer Facility
Sample Description,9.2. MAGNETITE: Merged RELAB & Nicole / Merged at 2.5 um / different viewing geometry
Date Added,2016-07-15 22:03:00.460560

Data ID,RPN_MAG_20          
Sample ID,MAG120
Mineral Name,Magnetite
Grain Size,<45
Viewing Geometry,30 / 0 | 30
Resolution,1.2-129
Material Class,Magnetite

Wavelength
305.0,0.03576
310.0,0.034858
315.0,0.037728
320.0,0.035968
325.0,0.037147
330.0,0.037343
335.0,0.037992
340.0,0.037411
345.0,0.037947
350.0,0.038388
355.0,0.038574
360.0,0.038748
365.0,0.039251
370.0,0.039883
375.0,0.040069
380.0,0.040551
385.0,0.04064
390.0,0.041104
395.0,0.041471
400.0,0.041745
405.0,0.042084
410.0,0.042638
415.0,0.042454
420.0,0.042567
425.0,0.04315
430.0,0.043642
435.0,0.04425
440.0,0.044772
445.0,0.045372
450.0,0.045455
455.0,0.045614
460.0,0.04558
465.0,0.045607
470.0,0.045576
475.0,0.045678
480.0,0.04578
485.0,0.046078
490.0,0.046375
495.0,0.046926
500.0,0.047373
505.0,0.047905
510.0,0.048499
515.0,0.04919
520.0,0.049948
525.0,0.050697
530.0,0.052024
535.0,0.053055
540.0,0.05381
545.0,0.054708
550.0,0.055388
555.0,0.056093
560.0,0.056744
565.0,0.057171
570.0,0.057534
575.0,0.057937
580.0,0.058202
585.0,0.058428
590.0,0.058565
595.0,0.058762
600.0,0.058887
605.0,0.058839
610.0,0.059028
615.0,0.059162
620.0,0.059231
625.0,0.059275
630.0,0.059417
635.0,0.05946
640.0,0.059528
645.0,0.059469
650.0,0.059546
655.0,0.059515
660.0,0.059264
665.0,0.059395
670.0,0.059357
675.0,0.059276
680.0,0.059372
685.0,0.059161
690.0,0.059118
695.0,0.058901
700.0,0.058739
705.0,0.05876
710.0,0.058903
715.0,0.058636
720.0,0.058874
725.0,0.058832
730.0,0.058569
735.0,0.058542
740.0,0.058471
745.0,0.058469
750.0,0.058053
755.0,0.05793
760.0,0.057873
765.0,0.057584
770.0,0.057494
775.0,0.057275
780.0,0.057198
785.0,0.056767
790.0,0.056474
795.0,0.056361
800.0,0.056377
805.0,0.055591
810.0,0.05516
815.0,0.054917
820.0,0.055273
825.0,0.054609
830.0,0.054745
835.0,0.053923
840.0,0.053715
845.0,0.053779
850.0,0.053475
855.0,0.053727
860.0,0.052754
865.0,0.052891
870.0,0.053032
875.0,0.052695
880.0,0.052745
885.0,0.052249
890.0,0.051956
895.0,0.052244
900.0,0.051792
905.0,0.051507
910.0,0.051393
915.0,0.051636
920.0,0.051392
925.0,0.050968
930.0,0.050545
935.0,0.050816
940.0,0.050457
945.0,0.05045
950.0,0.050114
955.0,0.05021
960.0,0.050188
965.0,0.049839
970.0,0.049786
975.0,0.049618
980.0,0.049245
985.0,0.049295
990.0,0.049434
995.0,0.04942
1000.0,0.049296
1005.0,0.049054
1010.0,0.048969
1015.0,0.048862
1020.0,0.048941
1025.0,0.048532
1030.0,0.049027
1035.0,0.04898
1040.0,0.048724
1045.0,0.048756
1050.0,0.048844
1055.0,0.048673
1060.0,0.048625
1065.0,0.048407
1070.0,0.048467
1075.0,0.048449
1080.0,0.048405
1085.0,0.048278
1090.0,0.048211
1095.0,0.04813
1100.0,0.048099
1105.0,0.048116
1110.0,0.048061
1115.0,0.048001
1120.0,0.047955
1125.0,0.047956
1130.0,0.048034
1135.0,0.047957
1140.0,0.048073
1145.0,0.048124
1150.0,0.048209
1155.0,0.048203
1160.0,0.04817
1165.0,0.048193
1170.0,0.048383
1175.0,0.048397
1180.0,0.048557
1185.0,0.048163
1190.0,0.048349
1195.0,0.04839
1200.0,0.04874
1205.0,0.048826
1210.0,0.049083
1215.0,0.048853
1220.0,0.048926
1225.0,0.04896
1230.0,0.048922
1235.0,0.048689
1240.0,0.048693
1245.0,0.048515
1250.0,0.048879
1255.0,0.048909
1260.0,0.048777
1265.0,0.048928
1270.0,0.048787
1275.0,0.048748
1280.0,0.049007
1285.0,0.048917
1290.0,0.04884
1295.0,0.048894
1300.0,0.049039
1305.0,0.048896
1310.0,0.049094
1315.0,0.049226
1320.0,0.049247
1325.0,0.049358
1330.0,0.049468
1335.0,0.049341
1340.0,0.049297
1345.0,0.04954
1350.0,0.049557
1355.0,0.04998
1360.0,0.049459
1365.0,0.048721
1370.0,0.049089
1375.0,0.049329
1380.0,0.050287
1385.0,0.049345
1390.0,0.049837
1395.0,0.04991
1400.0,0.050127
1405.0,0.049946
1410.0,0.049981
1415.0,0.0502
1420.0,0.050229
1425.0,0.050149
1430.0,0.049889
1435.0,0.050172
1440.0,0.050112
1445.0,0.050726
1450.0,0.050553
1455.0,0.050323
1460.0,0.050869
1465.0,0.05084
1470.0,0.050564
1475.0,0.050715
1480.0,0.050789
1485.0,0.051031
1490.0,0.051005
1495.0,0.050837
1500.0,0.051269
1505.0,0.051226
1510.0,0.05129
1515.0,0.051673
1520.0,0.051344
1525.0,0.051761
1530.0,0.051899
1535.0,0.05205
1540.0,0.052113
1545.0,0.052124
1550.0,0.052
1555.0,0.052304
1560.0,0.052452
1565.0,0.05209
1570.0,0.052372
1575.0,0.052536
1580.0,0.052533
1585.0,0.052655
1590.0,0.052869
1595.0,0.052779
1600.0,0.052813
1605.0,0.052817
1610.0,0.052988
1615.0,0.053169
1620.0,0.053009
1625.0,0.053031
1630.0,0.052958
1635.0,0.053249
1640.0,0.053226
1645.0,0.053295
1650.0,0.053187
1655.0,0.053278
1660.0,0.053305
1665.0,0.053468
1670.0,0.053673
1675.0,0.053484
1680.0,0.053741
1685.0,0.053913
1690.0,0.0539
1695.0,0.053464
1700.0,0.053896
1705.0,0.053993
1710.0,0.054061
1715.0,0.054138
1720.0,0.054189
1725.0,0.054159
1730.0,0.054293
1735.0,0.054211
1740.0,0.054458
1745.0,0.054474
1750.0,0.054488
1755.0,0.054461
1760.0,0.054708
1765.0,0.054678
1770.0,0.054678
1775.0,0.05481
1780.0,0.054852
1785.0,0.054897
1790.0,0.055099
1795.0,0.055
1800.0,0.055191
1805.0,0.055631
1810.0,0.055788
1815.0,0.05587
1820.0,0.05587
1825.0,0.055929
1830.0,0.056047
1835.0,0.056006
1840.0,0.05635
1845.0,0.056274
1850.0,0.056356
1855.0,0.056083
1860.0,0.056361
1865.0,0.056325
1870.0,0.056865
1875.0,0.056515
1880.0,0.056368
1885.0,0.05655
1890.0,0.056594
1895.0,0.056706
1900.0,0.056633
1905.0,0.056899
1910.0,0.05678
1915.0,0.056805
1920.0,0.056687
1925.0,0.057056
1930.0,0.057024
1935.0,0.056792
1940.0,0.056991
1945.0,0.057002
1950.0,0.057312
1955.0,0.057026
1960.0,0.057311
1965.0,0.057436
1970.0,0.057405
1975.0,0.057443
1980.0,0.057513
1985.0,0.057618
1990.0,0.057607
1995.0,0.057628
2000.0,0.057661
2005.0,0.057837
2010.0,0.057955
2015.0,0.057911
2020.0,0.057896
2025.0,0.058016
2030.0,0.057904
2035.0,0.058107
2040.0,0.058098
2045.0,0.058043
2050.0,0.058301
2055.0,0.058273
2060.0,0.058212
2065.0,0.058454
2070.0,0.058394
2075.0,0.058411
2080.0,0.058714
2085.0,0.058599
2090.0,0.058759
2095.0,0.059016
2100.0,0.059019
2105.0,0.058957
2110.0,0.058851
2115.0,0.059142
2120.0,0.059032
2125.0,0.058973
2130.0,0.05911
2135.0,0.059257
2140.0,0.059044
2145.0,0.059223
2150.0,0.058826
2155.0,0.059314
2160.0,0.059289
2165.0,0.059223
2170.0,0.059147
2175.0,0.059124
2180.0,0.059291
2185.0,0.059316
2190.0,0.059372
2195.0,0.059394
2200.0,0.059334
2205.0,0.059428
2210.0,0.059274
2215.0,0.059361
2220.0,0.059611
2225.0,0.059674
2230.0,0.0596
2235.0,0.059789
2240.0,0.059562
2245.0,0.059769
2250.0,0.059905
2255.0,0.060084
2260.0,0.060091
2265.0,0.059955
2270.0,0.059946
2275.0,0.060086
2280.0,0.060123
2285.0,0.060245
2290.0,0.060097
2295.0,0.060315
2300.0,0.060347
2305.0,0.06047
2310.0,0.060586
2315.0,0.060612
2320.0,0.060486
2325.0,0.060686
2330.0,0.060634
2335.0,0.060433
2340.0,0.060495
2345.0,0.060477
2350.0,0.060947
2355.0,0.060703
2360.0,0.060737
2365.0,0.060595
2370.0,0.060842
2375.0,0.060736
2380.0,0.060775
2385.0,0.06074
2390.0,0.060886
2395.0,0.06082
2400.0,0.060733
2405.0,0.060851
2410.0,0.060869
2415.0,0.06113
2420.0,0.061031
2425.0,0.061296
2430.0,0.060999
2435.0,0.061071
2440.0,0.06121
2445.0,0.061241
2450.0,0.061137
2455.0,0.060993
2460.0,0.0611
2465.0,0.061065
2470.0,0.061026
2475.0,0.061318
2480.0,0.061565
2485.0,0.061385
2490.0,0.061259
2495.0,0.061212
2500.0,0.061114
2502.0,0.061311
2503.2,0.061208
2504.41,0.060974
2505.62,0.061131
2506.83,0.061102
2508.05,0.060925
2509.26,0.061086
2510.48,0.061407
2511.69,0.061353
2512.91,0.0614
2514.13,0.061246
2515.35,0.060977
2516.57,0.061124
2517.79,0.061357
2519.02,0.061277
2520.24,0.061034
2521.47,0.060841
2522.69,0.060979
2523.92,0.060906
2525.15,0.060934
2526.38,0.061309
2527.61,0.061355
2528.85,0.061106
2530.08,0.061027
2531.32,0.06139
2532.55,0.061404
2533.79,0.06117
2535.03,0.061017
2536.27,0.061023
2537.51,0.060991
2538.75,0.061051
2540.0,0.060851
2541.24,0.060739
2542.49,0.060752
2543.74,0.060618
2544.99,0.0607
2546.24,0.060876
2547.49,0.060929
2548.74,0.060883
2549.99,0.06087
2551.25,0.06092
2552.5,0.060754
2553.76,0.060664
2555.02,0.060718
2556.28,0.060877
2557.54,0.061061
2558.8,0.061047
2560.07,0.06099
2561.33,0.061001
2562.6,0.060698
2563.86,0.060471
2565.13,0.060523
2566.4,0.060784
2567.67,0.060917
2568.95,0.060747
2570.22,0.060699
2571.5,0.060936
2572.77,0.061182
2574.05,0.060931
2575.33,0.060782
2576.61,0.060607
2577.89,0.060625
2579.17,0.060613
2580.46,0.060521
2581.74,0.060625
2583.03,0.060821
2584.31,0.060845
2585.6,0.060878
2586.89,0.060739
2588.19,0.060581
2589.48,0.060667
2590.77,0.060601
2592.07,0.060599
2593.36,0.060893
2594.66,0.061097
2595.96,0.060972
2597.26,0.060826
2598.56,0.060674
2599.87,0.060431
2601.17,0.060387
2602.48,0.060662
2603.78,0.06078
2605.09,0.060769
2606.4,0.060687
2607.71,0.06073
2609.03,0.060778
2610.34,0.060716
2611.66,0.060672
2612.97,0.060486
2614.29,0.060534
2615.61,0.060653
2616.93,0.060687
2618.25,0.060639
2619.57,0.060466
2620.9,0.060394
2622.22,0.060646
2623.55,0.060855
2624.88,0.060703
2626.21,0.060662
2627.54,0.060807
2628.87,0.060739
2630.21,0.06062
2631.54,0.060684
2632.88,0.060576
2634.21,0.06058
2635.55,0.06089
2636.89,0.060886
2638.24,0.060482
2639.58,0.060209
2640.92,0.060422
2642.27,0.06063
2643.62,0.060613
2644.97,0.060352
2646.32,0.060311
2647.67,0.060629
2649.02,0.060774
2650.38,0.060509
2651.73,0.060337
2653.09,0.060415
2654.45,0.060394
2655.81,0.060491
2657.17,0.060522
2658.53,0.060445
2659.89,0.060428
2661.26,0.060357
2662.63,0.060385
2664.0,0.060374
2665.36,0.060388
2666.74,0.060378
2668.11,0.06052
2669.48,0.060584
2670.86,0.060432
2672.23,0.06043
2673.61,0.060233
2674.99,0.05999
2676.37,0.059986
2677.76,0.060266
2679.14,0.060684
2680.52,0.060557
2681.91,0.060268
2683.3,0.060063
2684.69,0.060065
2686.08,0.06021
2687.47,0.060223
2688.87,0.060303
2690.26,0.06008
2691.66,0.059851
2693.06,0.059885
2694.46,0.060035
2695.86,0.060195
2697.26,0.060016
2698.66,0.059853
2700.07,0.059888
2701.48,0.059803
2702.89,0.059841
2704.3,0.059791
2705.71,0.059782
2707.12,0.059805
2708.53,0.059858
2709.95,0.059976
2711.37,0.059782
2712.79,0.059647
2714.21,0.059803
2715.63,0.059883
2717.05,0.059747
2718.48,0.05958
2719.9,0.059565
2721.33,0.059559
2722.76,0.059531
2724.19,0.059491
2725.62,0.059437
2727.06,0.059415
2728.49,0.059268
2729.93,0.059166
2731.37,0.059004
2732.81,0.059011
2734.25,0.05899
2735.69,0.05887
2737.14,0.058979
2738.58,0.059053
2740.03,0.058907
2741.48,0.058945
2742.93,0.059071
2744.38,0.058886
2745.83,0.058779
2747.29,0.058595
2748.75,0.058247
2750.2,0.058105
2751.66,0.058416
2753.13,0.058751
2754.59,0.058587
2756.05,0.058167
2757.52,0.05829
2758.99,0.058533
2760.46,0.058383
2761.93,0.058086
2763.4,0.058171
2764.87,0.058391
2766.35,0.058344
2767.82,0.058185
2769.3,0.058005
2770.78,0.057987
2772.26,0.058095
2773.75,0.058229
2775.23,0.058101
2776.72,0.057852
2778.21,0.057876
2779.7,0.058012
2781.19,0.057825
2782.68,0.057648
2784.18,0.057631
2785.67,0.057653
2787.17,0.057633
2788.67,0.05767
2790.17,0.05767
2791.67,0.057696
2793.18,0.057699
2794.68,0.057419
2796.19,0.057351
2797.7,0.057571
2799.21,0.057539
2800.72,0.057395
2802.24,0.057276
2803.75,0.057303
2805.27,0.057246
2806.79,0.057194
2808.31,0.057172
2809.83,0.057134
2811.35,0.057093
2812.88,0.057096
2814.41,0.056969
2815.93,0.056724
2817.46,0.056781
2819.0,0.056863
2820.53,0.056718
2822.07,0.056633
2823.6,0.056667
2825.14,0.056619
2826.68,0.056725
2828.22,0.05661
2829.77,0.056553
2831.31,0.056603
2832.86,0.056579
2834.41,0.056557
2835.96,0.056541
2837.51,0.056554
2839.07,0.056387
2840.62,0.056213
2842.18,0.056367
2843.74,0.056544
2845.3,0.056511
2846.86,0.056355
2848.43,0.056366
2849.99,0.056405
2851.56,0.05637
2853.13,0.05641
2854.7,0.056297
2856.27,0.056101
2857.85,0.056176
2859.42,0.056138
2861.0,0.056236
2862.58,0.056279
2864.16,0.056063
2865.75,0.056019
2867.33,0.056092
2868.92,0.056001
2870.51,0.055883
2872.1,0.05587
2873.69,0.05587
2875.28,0.055964
2876.88,0.056
2878.48,0.055832
2880.07,0.055804
2881.68,0.055849
2883.28,0.055786
2884.88,0.0556
2886.49,0.055663
2888.1,0.055874
2889.71,0.055794
2891.32,0.05569
2892.93,0.055727
2894.55,0.05571
2896.16,0.055729
2897.78,0.055663
2899.4,0.055717
2901.03,0.05578
2902.65,0.055761
2904.28,0.055712
2905.91,0.055572
2907.54,0.055674
2909.17,0.055589
2910.8,0.05549
2912.44,0.055327
2914.07,0.055157
2915.71,0.055282
2917.35,0.055479
2918.99,0.055519
2920.64,0.055573
2922.29,0.055624
2923.93,0.055505
2925.58,0.055303
2927.24,0.055217
2928.89,0.055244
2930.55,0.055203
2932.2,0.055242
2933.86,0.055253
2935.52,0.055177
2937.19,0.055132
2938.85,0.055153
2940.52,0.055245
2942.19,0.055201
2943.86,0.055085
2945.53,0.055013
2947.21,0.05494
2948.88,0.055187
2950.56,0.055249
2952.24,0.055033
2953.92,0.054914
2955.61,0.055001
2957.29,0.055177
2958.98,0.055166
2960.67,0.055117
2962.36,0.055011
2964.06,0.054916
2965.75,0.054914
2967.45,0.054964
2969.15,0.054893
2970.85,0.054794
2972.55,0.054893
2974.26,0.054982
2975.97,0.054883
2977.68,0.054747
2979.39,0.054795
2981.1,0.054865
2982.82,0.05488
2984.53,0.05466
2986.25,0.054551
2987.97,0.054727
2989.7,0.054751
2991.42,0.05456
2993.15,0.054616
2994.88,0.054739
2996.61,0.054714
2998.34,0.054657
3000.08,0.054773
3001.82,0.054725
3003.55,0.054649
3005.3,0.054572
3007.04,0.054549
3008.78,0.054627
3010.53,0.05456
3012.28,0.054533
3014.03,0.054643
3015.79,0.054554
3017.54,0.054628
3019.3,0.05465
3021.06,0.054444
3022.82,0.05435
3024.58,0.054421
3026.35,0.054384
3028.12,0.054334
3029.89,0.054452
3031.66,0.054583
3033.43,0.054574
3035.21,0.054443
3036.99,0.05437
3038.77,0.054342
3040.55,0.054359
3042.33,0.05446
3044.12,0.054419
3045.91,0.054299
3047.7,0.054349
3049.49,0.054336
3051.29,0.054159
3053.08,0.054112
3054.88,0.054167
3056.68,0.054152
3058.49,0.054073
3060.29,0.054127
3062.1,0.054189
3063.91,0.054197
3065.72,0.054103
3067.54,0.054055
3069.35,0.054145
3071.17,0.054192
3072.99,0.054199
3074.81,0.054136
3076.64,0.054106
3078.47,0.054122
3080.29,0.054116
3082.13,0.054072
3083.96,0.053931
3085.79,0.053858
3087.63,0.053922
3089.47,0.054087
3091.31,0.054068
3093.16,0.054047
3095.01,0.053997
3096.85,0.053969
3098.71,0.054035
3100.56,0.054002
3102.41,0.053943
3104.27,0.054079
3106.13,0.054252
3107.99,0.054293
3109.86,0.054178
3111.73,0.054216
3113.59,0.0543
3115.47,0.054205
3117.34,0.054278
3119.21,0.054197
3121.09,0.054063
3122.97,0.054189
3124.86,0.054342
3126.74,0.054268
3128.63,0.054248
3130.52,0.054324
3132.41,0.054324
3134.3,0.054481
3136.2,0.05444
3138.1,0.054274
3140.0,0.054267
3141.9,0.05431
3143.81,0.054363
3145.71,0.054357
3147.62,0.054415
3149.54,0.054446
3151.45,0.05451
3153.37,0.054493
3155.29,0.054619
3157.21,0.05472
3159.13,0.054628
3161.06,0.054568
3162.99,0.054646
3164.92,0.054656
3166.85,0.054578
3168.79,0.054564
3170.72,0.054676
3172.67,0.054775
3174.61,0.05478
3176.55,0.054784
3178.5,0.054789
3180.45,0.054835
3182.4,0.05478
3184.36,0.054854
3186.32,0.054957
3188.27,0.054993
3190.24,0.055127
3192.2,0.05517
3194.17,0.055152
3196.14,0.055145
3198.11,0.055174
3200.08,0.055261
3202.06,0.055225
3204.04,0.055263
3206.02,0.055414
3208.0,0.055437
3209.99,0.055338
3211.98,0.055352
3213.97,0.055457
3215.96,0.055521
3217.96,0.055521
3219.96,0.055671
3221.96,0.055822
3223.96,0.055793
3225.97,0.055781
3227.98,0.055874
3229.99,0.055904
3232.0,0.055918
3234.02,0.056018
3236.04,0.056091
3238.06,0.056081
3240.08,0.056133
3242.11,0.056187
3244.14,0.056206
3246.17,0.056324
3248.2,0.056358
3250.24,0.056352
3252.28,0.056417
3254.32,0.056477
3256.37,0.056458
3258.41,0.056477
3260.46,0.056558
3262.51,0.056621
3264.57,0.056662
3266.63,0.056692
3268.69,0.056805
3270.75,0.056918
3272.81,0.056886
3274.88,0.056937
3276.95,0.056948
3279.02,0.056885
3281.1,0.056917
3283.18,0.057006
3285.26,0.057071
3287.34,0.057081
3289.43,0.057263
3291.51,0.057444
3293.61,0.057427
3295.7,0.057341
3297.8,0.057255
3299.9,0.057307
3302.0,0.057344
3304.1,0.057358
3306.21,0.057499
3308.32,0.057664
3310.43,0.0576
3312.55,0.057554
3314.66,0.057646
3316.79,0.057793
3318.91,0.057901
3321.03,0.057837
3323.16,0.057884
3325.29,0.05792
3327.43,0.057913
3329.57,0.057961
3331.71,0.058015
3333.85,0.058025
3335.99,0.058078
3338.14,0.058116
3340.29,0.058205
3342.45,0.058248
3344.6,0.058272
3346.76,0.058276
3348.92,0.058246
3351.09,0.05832
3353.26,0.058308
3355.43,0.058287
3357.6,0.058386
3359.78,0.058495
3361.96,0.058493
3364.14,0.058377
3366.32,0.058389
3368.51,0.058647
3370.7,0.058743
3372.89,0.05872
3375.09,0.058754
3377.29,0.058785
3379.49,0.058838
3381.69,0.058881
3383.9,0.058937
3386.11,0.058886
3388.32,0.058909
3390.54,0.059083
3392.76,0.059116
3394.98,0.059053
3397.21,0.059084
3399.43,0.059075
3401.66,0.059134
3403.9,0.059242
3406.13,0.059236
3408.37,0.05927
3410.61,0.059262
3412.86,0.059266
3415.11,0.059309
3417.36,0.059436
3419.61,0.05952
3421.87,0.059454
3424.13,0.059472
3426.39,0.059449
3428.66,0.059426
3430.93,0.059541
3433.2,0.059622
3435.48,0.059666
3437.76,0.059693
3440.04,0.059653
3442.32,0.059641
3444.61,0.059718
3446.9,0.059731
3449.19,0.059731
3451.49,0.059816
3453.79,0.059881
3456.09,0.059894
3458.4,0.059898
3460.7,0.059919
3463.02,0.060086
3465.33,0.060185
3467.65,0.060104
3469.97,0.059993
3472.29,0.059998
3474.62,0.060082
3476.95,0.060097
3479.29,0.060117
3481.62,0.060216
3483.96,0.060194
3486.3,0.060144
3488.65,0.060221
3491.0,0.06025
3493.35,0.060217
3495.71,0.060259
3498.07,0.060435
3500.43,0.060509
3502.79,0.060415
3505.16,0.060477
3507.53,0.060544
3509.91,0.060531
3512.29,0.060575
3514.67,0.060691
3517.05,0.060766
3519.44,0.060777
3521.83,0.060702
3524.23,0.060668
3526.62,0.060767
3529.02,0.060824
3531.43,0.060808
3533.83,0.060861
3536.24,0.060882
3538.66,0.060907
3541.08,0.060957
3543.5,0.061025
3545.92,0.061049
3548.35,0.061013
3550.78,0.061019
3553.21,0.061109
3555.65,0.061023
3558.09,0.060976
3560.53,0.061173
3562.98,0.061227
3565.43,0.061195
3567.88,0.06129
3570.34,0.061291
3572.8,0.061272
3575.27,0.061422
3577.73,0.061449
3580.2,0.061419
3582.68,0.061522
3585.16,0.061594
3587.64,0.061585
3590.12,0.061615
3592.61,0.061676
3595.1,0.061724
3597.6,0.061732
3600.09,0.061754
3602.6,0.061764
3605.1,0.061757
3607.61,0.061788
3610.12,0.061828
3612.64,0.061868
3615.16,0.061927
3617.68,0.061974
3620.21,0.062013
3622.74,0.062026
3625.27,0.062068
3627.81,0.062122
3630.35,0.062177
3632.89,0.062203
3635.44,0.06227
3637.99,0.06231
3640.54,0.062271
3643.1,0.062283
3645.66,0.062365
3648.23,0.06249
3650.8,0.06252
3653.37,0.062479
3655.95,0.06252
3658.53,0.06259
3661.11,0.0626
3663.7,0.062574
3666.29,0.062577
3668.89,0.062678
3671.48,0.062809
3674.09,0.062866
3676.69,0.062793
3679.3,0.062734
3681.91,0.06274
3684.53,0.062829
3687.15,0.062938
3689.78,0.062991
3692.4,0.063011
3695.04,0.063031
3697.67,0.063079
3700.31,0.063132
3702.95,0.063124
3705.6,0.063084
3708.25,0.06315
3710.91,0.063252
3713.56,0.063261
3716.23,0.063266
3718.89,0.063317
3721.56,0.063345
3724.23,0.063355
3726.91,0.06347
3729.59,0.063578
3732.28,0.063617
3734.97,0.063632
3737.66,0.063605
3740.36,0.0636
3743.06,0.063585
3745.76,0.063604
3748.47,0.063663
3751.18,0.063685
3753.9,0.063715
3756.62,0.063803
3759.34,0.06396
3762.07,0.064044
3764.8,0.063958
3767.54,0.063932
3770.28,0.064021
3773.02,0.064079
3775.77,0.064021
3778.52,0.063995
3781.28,0.064045
3784.04,0.064117
3786.8,0.064173
3789.57,0.064253
3792.34,0.064286
3795.12,0.064247
3797.9,0.064237
3800.69,0.064262
3803.47,0.064311
3806.27,0.064375
3809.06,0.064407
3811.86,0.064496
3814.67,0.064553
3817.48,0.064495
3820.29,0.064514
3823.11,0.064577
3825.93,0.064619
3828.76,0.064713
3831.59,0.06477
3834.42,0.064789
3837.26,0.064779
3840.1,0.064759
3842.95,0.064802
3845.8,0.064891
3848.65,0.064992
3851.51,0.065002
3854.38,0.065028
3857.24,0.065002
3860.12,0.064992
3862.99,0.065051
3865.87,0.06514
3868.76,0.065184
3871.65,0.065173
3874.54,0.065094
3877.44,0.065173
3880.34,0.06527
3883.25,0.06531
3886.16,0.065356
3889.07,0.065396
3891.99,0.065401
3894.92,0.065469
3897.85,0.065486
3900.78,0.065497
3903.72,0.065506
3906.66,0.065535
3909.6,0.065551
3912.55,0.065528
3915.51,0.065591
3918.47,0.065707
3921.43,0.065799
3924.4,0.0658
3927.38,0.065759
3930.35,0.065789
3933.33,0.065799
3936.32,0.065834
3939.31,0.065942
3942.31,0.065972
3945.31,0.065967
3948.31,0.065983
3951.32,0.065992
3954.34,0.066053
3957.35,0.066069
3960.38,0.066009
3963.41,0.066038
3966.44,0.06613
3969.48,0.066208
3972.52,0.066246
3975.56,0.066281
3978.61,0.066304
3981.67,0.066387
3984.73,0.06639
3987.8,0.066385
3990.87,0.06642
3993.94,0.066403
3997.02,0.066431
4000.1,0.066495
4003.19,0.066523
4006.29,0.066615
4009.39,0.066637
4012.49,0.066581
4015.6,0.066552
4018.71,0.06663
4021.83,0.066674
4024.95,0.066683
4028.08,0.066731
4031.21,0.066707
4034.35,0.066651
4037.49,0.066807
4040.64,0.066909
4043.79,0.066897
4046.94,0.066904
4050.11,0.066968
4053.27,0.066937
4056.44,0.066892
4059.62,0.066927
4062.8,0.066997
4065.99,0.067073
4069.18,0.067103
4072.38,0.06711
4075.58,0.06714
4078.78,0.067213
4082.0,0.067197
4085.21,0.067244
4088.43,0.067326
4091.66,0.067371
4094.89,0.067402
4098.13,0.067472
4101.37,0.067485
4104.62,0.067405
4107.87,0.067371
4111.13,0.067423
4114.39,0.067458
4117.66,0.067444
4120.93,0.067489
4124.21,0.067503
4127.5,0.06752
4130.79,0.06756
4134.08,0.067619
4137.38,0.067691
4140.68,0.067739
4143.99,0.067692
4147.31,0.067712
4150.63,0.067782
4153.95,0.067855
4157.29,0.067866
4160.62,0.067874
4163.96,0.067855
4167.31,0.067804
4170.66,0.067848
4174.02,0.067936
4177.39,0.067938
4180.75,0.067931
4184.13,0.068006
4187.51,0.068072
4190.89,0.068117
4194.28,0.068095
4197.68,0.068087
4201.08,0.068118
4204.49,0.068181
4207.9,0.068243
4211.32,0.068252
4214.74,0.068261
4218.17,0.068273
4221.61,0.068288
4225.05,0.068377
4228.5,0.068424
4231.95,0.068488
4235.4,0.06855
4238.87,0.068518
4242.34,0.068538
4245.81,0.068497
4249.29,0.068499
4252.78,0.06855
4256.27,0.068537
4259.77,0.06855
4263.27,0.068608
4266.78,0.068682
4270.29,0.068742
4273.81,0.068806
4277.34,0.068813
4280.87,0.068803
4284.41,0.068838
4287.95,0.068892
4291.5,0.068913
4295.06,0.068908
4298.62,0.06901
4302.19,0.069092
4305.76,0.069049
4309.34,0.069041
4312.92,0.069052
4316.52,0.069106
4320.11,0.06918
4323.72,0.069176
4327.32,0.069188
4330.94,0.069233
4334.56,0.069256
4338.19,0.069258
4341.82,0.069258
4345.46,0.069303
4349.11,0.069351
4352.76,0.069382
4356.42,0.06945
4360.08,0.069415
4363.75,0.069422
4367.43,0.069459
4371.11,0.069461
4374.8,0.069507
4378.49,0.069564
4382.19,0.069612
4385.9,0.069601
4389.61,0.069514
4393.33,0.069545
4397.06,0.069649
4400.79,0.069731
4404.53,0.069771
4408.28,0.069734
4412.03,0.069695
4415.79,0.069724
4419.55,0.069802
4423.32,0.069858
4427.1,0.069875
4430.88,0.069905
4434.68,0.069918
4438.47,0.069957
4442.28,0.069995
4446.08,0.070031
4449.9,0.070028
4453.72,0.070029
4457.55,0.070046
4461.39,0.070074
4465.23,0.070108
4469.08,0.070159
4472.94,0.070216
4476.8,0.070256
4480.67,0.070267
4484.55,0.070222
4488.43,0.070234
4492.32,0.070263
4496.21,0.070344
4500.12,0.070415
4504.03,0.070419
4507.94,0.070442
4511.87,0.070477
4515.8,0.070493
4519.73,0.070514
4523.68,0.070507
4527.63,0.070508
4531.59,0.070543
4535.55,0.07062
4539.52,0.070626
4543.5,0.070683
4547.49,0.070696
4551.48,0.070632
4555.48,0.070668
4559.49,0.070711
4563.5,0.070771
4567.52,0.07081
4571.55,0.070836
4575.58,0.07083
4579.63,0.070841
4583.67,0.070828
4587.73,0.070881
4591.79,0.070906
4595.86,0.070871
4599.94,0.070895
4604.03,0.070967
4608.12,0.071029
4612.22,0.071042
4616.33,0.071051
4620.44,0.071103
4624.56,0.07111
4628.69,0.071122
4632.83,0.071166
4636.97,0.071203
4641.12,0.071242
4645.28,0.071267
4649.45,0.071321
4653.62,0.071372
4657.8,0.07134
4661.99,0.071316
4666.19,0.071335
4670.39,0.071352
4674.6,0.071354
4678.82,0.071375
4683.05,0.071419
4687.28,0.07147
4691.52,0.071469
4695.77,0.071484
4700.03,0.071524
4704.3,0.0715
4708.57,0.07153
4712.85,0.071581
4717.14,0.071624
4721.43,0.071626
4725.74,0.071643
4730.05,0.071679
4734.37,0.071743
4738.7,0.071773
4743.03,0.071762
4747.38,0.071756
4751.73,0.07181
4756.09,0.071842
4760.45,0.071896
4764.83,0.071917
4769.21,0.071891
4773.6,0.071869
4778.0,0.071903
4782.41,0.071963
4786.83,0.072047
4791.25,0.072059
4795.68,0.07202
4800.13,0.072034
4804.57,0.072061
4809.03,0.072098
4813.5,0.072135
4817.97,0.072127
4822.45,0.072139
4826.94,0.072171
4831.44,0.072188
4835.95,0.072237
4840.46,0.072214
4844.99,0.072246
4849.52,0.072309
4854.06,0.072298
4858.61,0.072254
4863.17,0.072273
4867.73,0.072357
4872.31,0.07242
4876.89,0.072394
4881.48,0.072405
4886.08,0.072472
4890.69,0.07246
4895.31,0.072459
4899.94,0.072486
4904.57,0.072476
4909.22,0.072502
4913.87,0.072521
4918.53,0.07257
4923.21,0.072637
4927.88,0.072708
4932.57,0.072733
4937.27,0.072724
4941.98,0.072748
4946.69,0.072781
4951.42,0.072811
4956.15,0.07283
4960.9,0.072803
4965.65,0.072797
4970.41,0.072825
4975.18,0.072863
4979.96,0.072878
4984.75,0.072885
4989.54,0.072919
4994.35,0.072974
4999.17,0.072973
5003.99,0.072973
5008.83,0.073007
5013.67,0.073042
5018.52,0.07308
5023.39,0.073065
5028.26,0.073056
5033.14,0.073071
5038.03,0.073085
5042.93,0.073109
5047.84,0.073107
5052.76,0.073143
5057.69,0.073131
5062.63,0.073177
5067.58,0.073245
5072.54,0.073236
5077.51,0.073239
5082.49,0.073267
5087.47,0.073273
5092.47,0.07333
5097.48,0.073307
5102.5,0.073353
5107.52,0.073421
5112.56,0.073445
5117.61,0.073424
5122.66,0.07341
5127.73,0.073438
5132.81,0.073475
5137.89,0.073468
5142.99,0.073469
5148.1,0.07352
5153.22,0.073572
5158.34,0.073579
5163.48,0.0736
5168.63,0.073612
5173.79,0.073613
5178.96,0.073605
5184.13,0.073639
5189.32,0.073688
5194.52,0.073731
5199.73,0.073721
5204.96,0.073742
5210.19,0.073791
5215.43,0.073857
5220.68,0.073876
5225.94,0.073846
5231.22,0.073894
5236.5,0.073946
5241.79,0.073907
5247.1,0.073864
5252.42,0.073931
5257.74,0.07399
5263.08,0.074009
5268.43,0.074015
5273.79,0.074025
5279.16,0.074021
5284.54,0.074066
5289.93,0.074124
5295.34,0.074131
5300.75,0.074147
5306.18,0.074156
5311.61,0.074144
5317.06,0.074134
5322.52,0.074149
5327.99,0.074202
5333.47,0.074218
5338.96,0.07426
5344.47,0.074331
5349.98,0.074354
5355.51,0.074355
5361.05,0.074314
5366.6,0.074292
5372.16,0.074324
5377.73,0.074366
5383.32,0.07434
5388.91,0.074336
5394.52,0.074369
5400.14,0.074417
5405.77,0.074453
5411.41,0.07446
5417.07,0.074467
5422.74,0.074488
5428.41,0.074521
5434.1,0.074488
5439.81,0.074485
5445.52,0.074496
5451.25,0.074504
5456.98,0.074532
5462.73,0.074587
5468.5,0.074644
5474.27,0.074588
5480.06,0.074532
5485.86,0.074519
5491.67,0.074504
5497.49,0.074503
5503.33,0.074539
5509.18,0.074578
5515.04,0.074541
5520.91,0.074555
5526.8,0.07456
5532.69,0.074563
5538.61,0.074562
5544.53,0.074568
5550.47,0.074531
5556.41,0.074552
5562.38,0.074577
5568.35,0.074582
5574.34,0.074598
5580.34,0.074635
5586.35,0.074618
5592.38,0.074623
5598.42,0.074616
5604.47,0.074585
5610.54,0.074607
5616.61,0.07464
5622.71,0.074655
5628.81,0.074644
5634.93,0.074672
5641.06,0.074729
5647.21,0.074804
5653.36,0.074777
5659.54,0.074725
5665.72,0.074736
5671.92,0.074748
5678.13,0.074811
5684.36,0.074881
5690.6,0.074911
5696.85,0.074875
5703.12,0.074855
5709.4,0.074938
5715.69,0.075038
5722.0,0.075087
5728.33,0.075122
5734.66,0.07511
5741.01,0.0752
5747.38,0.075241
5753.76,0.075246
5760.15,0.075255
5766.56,0.075342
5772.98,0.075464
5779.41,0.075453
5785.86,0.07545
5792.33,0.07543
5798.81,0.07546
5805.3,0.075489
5811.81,0.075498
5818.33,0.075555
5824.87,0.075682
5831.42,0.075727
5837.99,0.075673
5844.57,0.075632
5851.17,0.075627
5857.78,0.075678
5864.41,0.075727
5871.05,0.075724
5877.7,0.075686
5884.38,0.07587
5891.06,0.075872
5897.76,0.075803
5904.48,0.07586
5911.21,0.075734
5917.96,0.075688
5924.73,0.075704
5931.5,0.075747
5938.3,0.075828
5945.11,0.075884
5951.93,0.075738
5958.78,0.075689
5965.63,0.075684
5972.51,0.07573
5979.39,0.075718
5986.3,0.075662
5993.22,0.075681
6000.16,0.075679
6007.11,0.075617
6014.08,0.0756
6021.06,0.075646
6028.06,0.075653
6035.08,0.075637
6042.12,0.075622
6049.17,0.075746
6056.23,0.075937
6063.32,0.075756
6070.42,0.075684
6077.53,0.075759
6084.67,0.07574
6091.82,0.075631
6098.98,0.075645
6106.17,0.075693
6113.37,0.075817
6120.58,0.075938
6127.82,0.075812
6135.07,0.075783
6142.34,0.075843
6149.63,0.075899
6156.93,0.075952
6164.25,0.07604
6171.59,0.076093
6178.95,0.076095
6186.32,0.076175
6193.71,0.07622
6201.12,0.076139
6208.54,0.076148
6215.99,0.076193
6223.45,0.076228
6230.93,0.076249
6238.43,0.076301
6245.95,0.076341
6253.48,0.076314
6261.03,0.076302
6268.6,0.076351
6276.19,0.076376
6283.8,0.076391
6291.43,0.076425
6299.07,0.076463
6306.73,0.076469
6314.42,0.076482
6322.12,0.07653
6329.84,0.076581
6337.57,0.076609
6345.33,0.076751
6353.11,0.076844
6360.9,0.076731
6368.72,0.076731
6376.55,0.076834
6384.4,0.076857
6392.27,0.076853
6400.17,0.076871
6408.08,0.07692
6416.01,0.077167
6423.96,0.07729
6431.93,0.077134
6439.92,0.077069
6447.93,0.077011
6455.96,0.076994
6464.01,0.077009
6472.08,0.077047
6480.17,0.077109
6488.28,0.077204
6496.41,0.077324
6504.56,0.07729
6512.73,0.077143
6520.92,0.077151
6529.14,0.077232
6537.37,0.077173
6545.63,0.077142
6553.9,0.077195
6562.2,0.077275
6570.51,0.077303
6578.85,0.077393
6587.21,0.077342
6595.59,0.077281
6603.99,0.077229
6612.42,0.07722
6620.86,0.077262
6629.33,0.077322
6637.82,0.077474
6646.33,0.077567
6654.86,0.077488
6663.41,0.077429
6671.99,0.077431
6680.59,0.077502
6689.21,0.077578
6697.85,0.077539
6706.51,0.077523
6715.2,0.077608
6723.91,0.077693
6732.64,0.077698
6741.4,0.077662
6750.18,0.077704
6758.98,0.077746
6767.8,0.077749
6776.65,0.077806
6785.52,0.077859
6794.41,0.077933
6803.33,0.077915
6812.27,0.077829
6821.23,0.077833
6830.22,0.07791
6839.23,0.077909
6848.26,0.077865
6857.32,0.077938
6866.4,0.078124
6875.51,0.078174
6884.64,0.078069
6893.8,0.078013
6902.98,0.077986
6912.18,0.078007
6921.41,0.077979
6930.66,0.077987
6939.94,0.077991
6949.24,0.077976
6958.57,0.078017
6967.92,0.078136
6977.3,0.078106
6986.7,0.078036
6996.13,0.077998
7005.59,0.078015
7015.07,0.07805
7024.57,0.078088
7034.1,0.078091
7043.66,0.078138
7053.25,0.078241
7062.85,0.078209
7072.49,0.078199
7082.15,0.0782
7091.84,0.078201
7101.55,0.078202
7111.3,0.078223
7121.06,0.07828
7130.86,0.078278
7140.68,0.078262
7150.53,0.078337
7160.41,0.078367
7170.31,0.078355
7180.24,0.078353
7190.2,0.078325
7200.19,0.07834
7210.2,0.078413
7220.24,0.078454
7230.31,0.078395
7240.41,0.078317
7250.54,0.078267
7260.69,0.078295
7270.88,0.078326
7281.09,0.078376
7291.33,0.078373
7301.6,0.078346
7311.9,0.078362
7322.22,0.078418
7332.58,0.078404
7342.97,0.078407
7353.38,0.078406
7363.83,0.078406
7374.3,0.07842
7384.81,0.078418
7395.34,0.078416
7405.91,0.078445
7416.5,0.078465
7427.13,0.078443
7437.78,0.078402
7448.47,0.078418
7459.19,0.078466
7469.94,0.078516
7480.71,0.07853
7491.52,0.078529
7502.37,0.078505
7513.24,0.078478
7524.14,0.07851
7535.08,0.078537
7546.05,0.078525
7557.05,0.078523
7568.08,0.07851
7579.15,0.078465
7590.24,0.078445
7601.37,0.078485
7612.53,0.078514
7623.73,0.078489
7634.96,0.078476
7646.22,0.078432
7657.51,0.078431
7668.84,0.078464
7680.2,0.078495
7691.59,0.078532
7703.02,0.078537
7714.49,0.078589
7725.98,0.078654
7737.52,0.078731
7749.08,0.078755
7760.68,0.078729
7772.32,0.078726
7783.99,0.078728
7795.69,0.07871
7807.43,0.078752
7819.21,0.078768
7831.02,0.078749
7842.87,0.078775
7854.75,0.078812
7866.67,0.078824
7878.62,0.078845
7890.62,0.078909
7902.64,0.078998
7914.71,0.079032
7926.81,0.078991
7938.95,0.078945
7951.13,0.078937
7963.34,0.078916
7975.59,0.078899
7987.88,0.078861
8000.21,0.078803
8012.57,0.078774
8024.98,0.0788
8037.42,0.078751
8049.9,0.078684
8062.42,0.078673
8074.98,0.078642
8087.57,0.078591
8100.21,0.078531
8112.89,0.078488
8125.6,0.078429
8138.36,0.078375
8151.16,0.078367
8163.99,0.078372
8176.87,0.078334
8189.79,0.078269
8202.75,0.078287
8215.75,0.078339
8228.79,0.078325
8241.87,0.078312
8254.99,0.078323
8268.16,0.078292
8281.37,0.078246
8294.62,0.07817
8307.91,0.078083
8321.24,0.078074
8334.62,0.078102
8348.04,0.078077
8361.51,0.078015
8375.02,0.077939
8388.57,0.077874
8402.16,0.077838
8415.8,0.077829
8429.49,0.077742
8443.22,0.07768
8456.99,0.077627
8470.81,0.077551
8484.67,0.077489
8498.58,0.077471
8512.54,0.077447
8526.54,0.077394
8540.58,0.077357
8554.68,0.077302
8568.82,0.077222
8583.0,0.077171
8597.24,0.077127
8611.52,0.077063
8625.85,0.077006
8640.23,0.076957
8654.65,0.076889
8669.12,0.076842
8683.64,0.076826
8698.21,0.076803
8712.83,0.07678
8727.5,0.076721
8742.22,0.076657
8756.99,0.076597
8771.8,0.076596
8786.67,0.076583
8801.59,0.076534
8816.56,0.076528
8831.58,0.076472
8846.65,0.076355
8861.77,0.076299
8876.94,0.076252
8892.17,0.076175
8907.45,0.076072
8922.78,0.075981
8938.16,0.075962
8953.6,0.075916
8969.09,0.075858
8984.64,0.075772
9000.23,0.075636
9015.89,0.075548
9031.59,0.075433
9047.36,0.075245
9063.17,0.075029
9079.05,0.074863
9094.97,0.07474
9110.96,0.074575
9127.0,0.074418
9143.1,0.074295
9159.25,0.074227
9175.46,0.074084
9191.73,0.073897
9208.06,0.073838
9224.44,0.073841
9240.88,0.0738
9257.38,0.073721
9273.94,0.07368
9290.56,0.073718
9307.24,0.073749
9323.98,0.073782
9340.78,0.073834
9357.64,0.073855
9374.57,0.073821
9391.55,0.073836
9408.59,0.073937
9425.7,0.074012
9442.87,0.074046
9460.1,0.07403
9477.4,0.074061
9494.75,0.07413
9512.17,0.074166
9529.66,0.074209
9547.21,0.074274
9564.83,0.074283
9582.5,0.074326
9600.25,0.074349
9618.06,0.07433
9635.94,0.074286
9653.88,0.07422
9671.89,0.074212
9689.97,0.07417
9708.12,0.074139
9726.33,0.074192
9744.62,0.074151
9762.97,0.074107
9781.39,0.074099
9799.88,0.074151
9818.44,0.074157
9837.07,0.07414
9855.77,0.074135
9874.54,0.074097
9893.39,0.074115
9912.3,0.074163
9931.29,0.074159
9950.36,0.074062
9969.49,0.074082
9988.7,0.07413
10007.98,0.07407
10027.34,0.073964
10046.77,0.073912
10066.28,0.073891
10085.87,0.073877
10105.53,0.073875
10125.26,0.073881
10145.08,0.073877
10164.97,0.073816
10184.94,0.07376
10204.99,0.073716
10225.12,0.073677
10245.33,0.07368
10265.61,0.073657
10285.98,0.073714
10306.43,0.073817
10326.96,0.073849
10347.57,0.073908
10368.27,0.073939
10389.05,0.073902
10409.91,0.073967
10430.86,0.074104
10451.88,0.074288
10473.0,0.074408
10494.2,0.07444
10515.49,0.074519
10536.86,0.074619
10558.32,0.074707
10579.87,0.074743
10601.5,0.074781
10623.23,0.074843
10645.04,0.074888
10666.94,0.074879
10688.94,0.074846
10711.02,0.074856
10733.2,0.074791
10755.47,0.074681
10777.83,0.074606
10800.28,0.074616
10822.83,0.074554
10845.47,0.074451
10868.21,0.074371
10891.04,0.074369
10913.97,0.074365
10936.99,0.074316
10960.12,0.074272
10983.34,0.074244
11006.66,0.074209
11030.07,0.074151
11053.59,0.074092
11077.21,0.074068
11100.93,0.074083
11124.75,0.074151
11148.68,0.074169
11172.71,0.074179
11196.84,0.074234
11221.07,0.07431
11245.41,0.074433
11269.86,0.074538
11294.41,0.074551
11319.07,0.074626
11343.84,0.074689
11368.72,0.074743
11393.7,0.074861
11418.8,0.074974
11444.01,0.075008
11469.33,0.075097
11494.76,0.075257
11520.3,0.075303
11545.96,0.075242
11571.73,0.075254
11597.62,0.075303
11623.62,0.075381
11649.74,0.075482
11675.98,0.075496
11702.34,0.075524
11728.81,0.075561
11755.41,0.075521
11782.13,0.075465
11808.96,0.075413
11835.92,0.075379
11863.01,0.075354
11890.22,0.075314
11917.55,0.075329
11945.01,0.075358
11972.6,0.075344
12000.31,0.075333
12028.16,0.07538
12056.13,0.07534
12084.23,0.075286
12112.46,0.075323
12140.83,0.075388
12169.33,0.075373
12197.96,0.075292
12226.73,0.075222
12255.64,0.0752
12284.68,0.075157
12313.86,0.075186
12343.18,0.075261
12372.64,0.075233
12402.24,0.075095
12431.98,0.074966
12461.86,0.074921
12491.89,0.074865
12522.07,0.074802
12552.38,0.07477
12582.85,0.074723
12613.47,0.074677
12644.23,0.07469
12675.15,0.074714
12706.21,0.074699
12737.43,0.074602
12768.81,0.074525
12800.33,0.07453
12832.02,0.074597
12863.86,0.074572
12895.86,0.074522
12928.02,0.074594
12960.34,0.074676
12992.82,0.074621
13025.46,0.074579
13058.27,0.074617
13091.25,0.074552
13124.39,0.074416
13157.7,0.074361
13191.18,0.074397
13224.83,0.074407
13258.66,0.074341
13292.65,0.074316
13326.83,0.074292
13361.17,0.074256
13395.7,0.07424
13430.4,0.074232
13465.29,0.074199
13500.35,0.074271
13535.6,0.074304
13571.03,0.07434
13606.65,0.074267
13642.46,0.074203
13678.46,0.07416
13714.64,0.074169
13751.02,0.074213
13787.59,0.074287
13824.36,0.07432
13861.32,0.07438
13898.49,0.074462
13935.85,0.074545
13973.41,0.074526
14011.17,0.074573
14049.15,0.074586
14087.32,0.074667
14125.71,0.074746
14164.3,0.074613
14203.11,0.074694
14242.13,0.074795
14281.36,0.074826
14320.81,0.074965
14360.49,0.075057
14400.38,0.075162
14440.49,0.075249
14480.82,0.07532
14521.39,0.075425
14562.18,0.075564
14603.2,0.075662
14644.45,0.075833
14685.93,0.076005
14727.66,0.076156
14769.62,0.076306
14811.81,0.076517
14854.25,0.076767
14896.94,0.076863
14939.87,0.077046
14983.05,0.077412
15026.48,0.077598
15070.16,0.077722
15114.1,0.07787
15158.29,0.07814
15202.74,0.07842
15247.46,0.078656
15292.43,0.078945
15337.68,0.079222
15383.19,0.079576
15428.97,0.080006
15475.03,0.080466
15521.36,0.080915
15567.97,0.081464
15614.87,0.082022
15662.04,0.082502
15709.5,0.082945
15757.25,0.083553
15805.29,0.084132
15853.62,0.084783
15902.26,0.085475
15951.19,0.086006
16000.42,0.086526
16049.95,0.087006
16099.8,0.087426
16149.95,0.087987
16200.42,0.088617
16251.21,0.089254
16302.31,0.089916
16353.74,0.090502
16405.49,0.091268
16457.57,0.092173
16509.98,0.092999
16562.73,0.093715
16615.82,0.094454
16669.24,0.095339
16723.02,0.096327
16777.14,0.097317
16831.61,0.098217
16886.43,0.099134
16941.62,0.100164
16997.16,0.101228
17053.08,0.102236
17109.36,0.103289
17166.01,0.104508
17223.04,0.105748
17280.45,0.10698
17338.24,0.108204
17396.43,0.109489
17455.0,0.110842
17513.97,0.112158
17573.34,0.113709
17633.11,0.115472
17693.29,0.116954
17753.89,0.118296
17814.9,0.119663
17876.33,0.120882
17938.18,0.121795
18000.47,0.122234
18063.19,0.122182
18126.35,0.12204
18189.95,0.121472
18254.0,0.120725
18318.5,0.119647
18383.46,0.118221
18448.88,0.116868
18514.77,0.115522
18581.13,0.113988
18647.97,0.112499
18715.29,0.111267
18783.1,0.110121
18851.4,0.108763
18920.2,0.107458
18989.51,0.106326
19059.32,0.105395
19129.65,0.104488
19200.5,0.103541
19271.88,0.102681
19343.79,0.102084
19416.24,0.101603
19489.23,0.101214
19562.77,0.100535
19636.88,0.09996
19711.54,0.099717
19786.78,0.099445
19862.59,0.099241
19938.98,0.099286
20015.96,0.099253
20093.55,0.099265
20171.73,0.099475
20250.53,0.099465
20329.94,0.099388
20409.98,0.099538
20490.65,0.099674
20571.96,0.099905
20653.92,0.100152
20736.54,0.100697
20819.82,0.101235
20903.77,0.101633
20988.4,0.101794
21073.72,0.101844
21159.73,0.102408
21246.46,0.103153
21333.89,0.103529
21422.04,0.103696
21510.93,0.103728
21600.56,0.10393
21690.94,0.10439
21782.08,0.104887
21873.99,0.104914
21966.67,0.105159
22060.15,0.105705
22154.42,0.106293
22249.51,0.10681
22345.41,0.107326
22442.14,0.107287
22539.72,0.107575
22638.14,0.107986
22737.43,0.10817
22837.6,0.108269
22938.65,0.1083
23040.6,0.108495
23143.46,0.108812
23247.24,0.108537
23351.96,0.108552
23457.63,0.108747
23564.25,0.108571
23671.85,0.108245
23780.44,0.109035
23890.02,0.110193
24000.63,0.109907
24112.26,0.109107
24224.93,0.108969
24338.66,0.110463
24453.47,0.112271
24569.36,0.11243
24686.36,0.113111
24804.47,0.114372
24923.73,0.115795
25044.13,0.117529
25165.71,0.117624
25288.46,0.116485
25412.43,0.117246
25537.61,0.118873
25664.04,0.120085
25791.72,0.119568
25920.68,0.119675
