Database of Origin,University of Winnipeg Spectrophotometer Facility
Sample Description,8. Sulfates: RELAB + Nicolet spectra / Spectra all made consistently merged: Jan. / 10 / 2005
Date Added,2016-07-15 22:05:54.905264

Data ID,RPN_SUL_20          
Sample ID,SPT106
Mineral Name,ferrous sulfate (syn)
Grain Size,45-90
Viewing Geometry,30 / 0 | 30
Resolution,5 / 1.3-129
Material Class,Sulfate

Wavelength
305.0,0.141671
310.0,0.140577
315.0,0.139261
320.0,0.140324
325.0,0.142132
330.0,0.145059
335.0,0.147399
340.0,0.152141
345.0,0.157383
350.0,0.164361
355.0,0.172386
360.0,0.182638
365.0,0.195093
370.0,0.211085
375.0,0.231024
380.0,0.254846
385.0,0.2844
390.0,0.322681
395.0,0.370558
400.0,0.418125
405.0,0.465373
410.0,0.499544
415.0,0.524194
420.0,0.535642
425.0,0.536242
430.0,0.537334
435.0,0.541061
440.0,0.540835
445.0,0.541579
450.0,0.544893
455.0,0.547979
460.0,0.550061
465.0,0.552847
470.0,0.553917
475.0,0.555445
480.0,0.562674
485.0,0.56686
490.0,0.564531
495.0,0.563368
500.0,0.55829
505.0,0.558078
510.0,0.558442
515.0,0.563413
520.0,0.568706
525.0,0.57444
530.0,0.576704
535.0,0.581071
540.0,0.583292
545.0,0.584393
550.0,0.581941
555.0,0.582195
560.0,0.582405
565.0,0.578419
570.0,0.575681
575.0,0.570611
580.0,0.564005
585.0,0.559263
590.0,0.552885
595.0,0.5446
600.0,0.53625
605.0,0.524483
610.0,0.516201
615.0,0.504185
620.0,0.492181
625.0,0.480841
630.0,0.469861
635.0,0.45625
640.0,0.44247
645.0,0.430842
650.0,0.417787
655.0,0.405769
660.0,0.394198
665.0,0.382692
670.0,0.371051
675.0,0.360897
680.0,0.35223
685.0,0.343274
690.0,0.33522
695.0,0.327446
700.0,0.320735
705.0,0.314422
710.0,0.308733
715.0,0.302408
720.0,0.298205
725.0,0.293139
730.0,0.287214
735.0,0.281491
740.0,0.276633
745.0,0.269662
750.0,0.262914
755.0,0.254914
760.0,0.246419
765.0,0.238588
770.0,0.228322
775.0,0.21895
780.0,0.209167
785.0,0.200132
790.0,0.190314
795.0,0.179703
800.0,0.170323
805.0,0.161493
810.0,0.15276
815.0,0.145123
820.0,0.137523
825.0,0.129908
830.0,0.123768
835.0,0.11755
840.0,0.110899
845.0,0.106368
850.0,0.100651
855.0,0.097053
860.0,0.09252
865.0,0.089254
870.0,0.085462
875.0,0.082379
880.0,0.080222
885.0,0.077562
890.0,0.075716
895.0,0.074107
900.0,0.072744
905.0,0.070611
910.0,0.070098
915.0,0.068758
920.0,0.068608
925.0,0.067642
930.0,0.067252
935.0,0.067121
940.0,0.066932
945.0,0.06713
950.0,0.067633
955.0,0.067475
960.0,0.068255
965.0,0.068809
970.0,0.069409
975.0,0.070381
980.0,0.071481
985.0,0.072185
990.0,0.072909
995.0,0.074117
1000.0,0.075236
1005.0,0.075834
1010.0,0.077101
1015.0,0.078147
1020.0,0.079038
1025.0,0.08036
1030.0,0.081176
1035.0,0.081815
1040.0,0.082291
1045.0,0.083329
1050.0,0.083759
1055.0,0.084395
1060.0,0.084899
1065.0,0.084825
1070.0,0.084972
1075.0,0.085599
1080.0,0.085299
1085.0,0.085309
1090.0,0.085215
1095.0,0.085333
1100.0,0.085122
1105.0,0.085332
1110.0,0.085171
1115.0,0.085309
1120.0,0.084916
1125.0,0.084447
1130.0,0.084328
1135.0,0.084347
1140.0,0.084536
1145.0,0.084496
1150.0,0.084431
1155.0,0.085043
1160.0,0.085158
1165.0,0.085329
1170.0,0.085306
1175.0,0.08549
1180.0,0.086004
1185.0,0.086371
1190.0,0.086744
1195.0,0.087129
1200.0,0.08758
1205.0,0.087623
1210.0,0.088124
1215.0,0.088746
1220.0,0.08945
1225.0,0.08988
1230.0,0.090732
1235.0,0.09127
1240.0,0.092908
1245.0,0.094028
1250.0,0.095015
1255.0,0.096228
1260.0,0.097304
1265.0,0.099324
1270.0,0.101374
1275.0,0.103713
1280.0,0.105652
1285.0,0.108494
1290.0,0.111287
1295.0,0.113973
1300.0,0.116461
1305.0,0.119371
1310.0,0.123237
1315.0,0.126649
1320.0,0.130297
1325.0,0.134611
1330.0,0.13814
1335.0,0.141199
1340.0,0.144811
1345.0,0.147886
1350.0,0.15139
1355.0,0.154444
1360.0,0.15731
1365.0,0.160064
1370.0,0.162947
1375.0,0.166485
1380.0,0.169351
1385.0,0.172014
1390.0,0.175903
1395.0,0.178335
1400.0,0.181064
1405.0,0.183743
1410.0,0.185022
1415.0,0.186148
1420.0,0.186295
1425.0,0.183595
1430.0,0.180689
1435.0,0.175005
1440.0,0.168453
1445.0,0.159531
1450.0,0.14963
1455.0,0.138515
1460.0,0.12681
1465.0,0.114624
1470.0,0.104496
1475.0,0.094386
1480.0,0.085668
1485.0,0.07769
1490.0,0.071857
1495.0,0.066963
1500.0,0.06357
1505.0,0.060958
1510.0,0.058574
1515.0,0.057023
1520.0,0.055434
1525.0,0.054256
1530.0,0.053415
1535.0,0.052604
1540.0,0.052044
1545.0,0.051326
1550.0,0.050351
1555.0,0.049596
1560.0,0.048759
1565.0,0.047874
1570.0,0.04715
1575.0,0.046866
1580.0,0.046232
1585.0,0.046068
1590.0,0.046105
1595.0,0.046195
1600.0,0.046442
1605.0,0.046851
1610.0,0.047383
1615.0,0.047626
1620.0,0.048061
1625.0,0.048357
1630.0,0.049141
1635.0,0.049646
1640.0,0.049821
1645.0,0.050535
1650.0,0.051555
1655.0,0.052781
1660.0,0.053663
1665.0,0.054866
1670.0,0.056397
1675.0,0.057655
1680.0,0.058831
1685.0,0.060107
1690.0,0.061892
1695.0,0.063441
1700.0,0.065562
1705.0,0.067397
1710.0,0.069522
1715.0,0.071842
1720.0,0.074465
1725.0,0.076659
1730.0,0.079092
1735.0,0.080767
1740.0,0.082623
1745.0,0.08405
1750.0,0.085402
1755.0,0.086397
1760.0,0.087673
1765.0,0.088512
1770.0,0.08919
1775.0,0.090159
1780.0,0.091167
1785.0,0.091921
1790.0,0.093515
1795.0,0.09513
1800.0,0.096994
1805.0,0.098926
1810.0,0.10116
1815.0,0.102947
1820.0,0.105173
1825.0,0.107415
1830.0,0.108849
1835.0,0.110638
1840.0,0.112186
1845.0,0.11299
1850.0,0.113673
1855.0,0.113743
1860.0,0.112599
1865.0,0.111352
1870.0,0.109295
1875.0,0.104935
1880.0,0.099816
1885.0,0.094202
1890.0,0.087171
1895.0,0.079478
1900.0,0.071439
1905.0,0.062945
1910.0,0.055088
1915.0,0.047784
1920.0,0.041494
1925.0,0.035672
1930.0,0.03142
1935.0,0.027556
1940.0,0.024464
1945.0,0.021834
1950.0,0.020049
1955.0,0.018421
1960.0,0.017287
1965.0,0.016634
1970.0,0.015745
1975.0,0.015352
1980.0,0.015076
1985.0,0.01482
1990.0,0.014435
1995.0,0.014367
2000.0,0.014196
2005.0,0.014059
2010.0,0.014012
2015.0,0.013869
2020.0,0.013746
2025.0,0.013602
2030.0,0.013507
2035.0,0.013353
2040.0,0.013362
2045.0,0.013302
2050.0,0.013196
2055.0,0.013301
2060.0,0.013333
2065.0,0.01327
2070.0,0.013258
2075.0,0.013419
2080.0,0.01336
2085.0,0.013179
2090.0,0.013353
2095.0,0.013288
2100.0,0.013179
2105.0,0.013296
2110.0,0.012837
2115.0,0.01303
2120.0,0.01298
2125.0,0.012865
2130.0,0.012624
2135.0,0.012671
2140.0,0.012556
2145.0,0.012441
2150.0,0.012328
2155.0,0.012437
2160.0,0.012297
2165.0,0.012669
2170.0,0.01293
2175.0,0.012856
2180.0,0.01296
2185.0,0.013284
2190.0,0.013558
2195.0,0.013828
2200.0,0.014025
2205.0,0.014259
2210.0,0.014603
2215.0,0.014628
2220.0,0.014878
2225.0,0.015246
2230.0,0.015689
2235.0,0.016304
2240.0,0.016594
2245.0,0.017381
2250.0,0.017921
2255.0,0.018825
2260.0,0.01991
2265.0,0.02107
2270.0,0.022063
2275.0,0.023076
2280.0,0.023849
2285.0,0.024285
2290.0,0.024188
2295.0,0.02389
2300.0,0.023521
2305.0,0.023146
2310.0,0.022901
2315.0,0.022923
2320.0,0.022785
2325.0,0.022471
2330.0,0.02183
2335.0,0.021434
2340.0,0.02092
2345.0,0.020268
2350.0,0.019616
2355.0,0.019063
2360.0,0.018497
2365.0,0.018282
2370.0,0.017716
2375.0,0.017306
2380.0,0.016849
2385.0,0.016403
2390.0,0.015964
2395.0,0.015582
2400.0,0.01514
2405.0,0.014954
2410.0,0.014705
2415.0,0.014705
2420.0,0.014316
2425.0,0.014317
2430.0,0.014193
2435.0,0.014319
2440.0,0.014233
2445.0,0.014377
2450.0,0.014335
2455.0,0.01488
2460.0,0.015042
2465.0,0.014446
2470.0,0.014824
2475.0,0.01492
2480.0,0.014938
2485.0,0.014926
2490.0,0.014681
2495.0,0.014441
2500.0,0.014283
2505.0,0.014097
2510.0,0.013946
2515.0,0.013819
2520.0,0.013466
2525.0,0.013434
2530.0,0.01318
2535.0,0.013199
2540.0,0.012919
2545.0,0.012786
2550.0,0.012577
2555.0,0.012645
2560.0,0.012485
2565.13,0.012262
2570.22,0.011861
2575.33,0.012206
2580.46,0.011829
2581.74,0.012076
2583.03,0.01231
2584.31,0.0122
2585.6,0.011939
2586.89,0.012033
2588.19,0.012055
2589.48,0.011913
2590.77,0.011915
2592.07,0.011915
2593.36,0.011885
2594.66,0.011898
2595.96,0.011902
2597.26,0.011899
2598.56,0.011809
2599.87,0.011852
2601.17,0.011956
2602.48,0.011854
2603.78,0.011726
2605.09,0.011584
2606.4,0.011352
2607.71,0.0114
2609.03,0.011402
2610.34,0.011454
2611.66,0.011529
2612.97,0.011589
2614.29,0.011512
2615.61,0.011559
2616.93,0.011402
2618.25,0.011249
2619.57,0.011454
2620.9,0.011563
2622.22,0.011556
2623.55,0.011477
2624.88,0.011421
2626.21,0.01135
2627.54,0.011303
2628.87,0.011268
2630.21,0.01119
2631.54,0.011195
2632.88,0.011148
2634.21,0.011141
2635.55,0.011039
2636.89,0.010924
2638.24,0.010919
2639.58,0.010957
2640.92,0.011004
2642.27,0.010947
2643.62,0.010908
2644.97,0.010884
2646.32,0.010744
2647.67,0.010749
2649.02,0.010806
2650.38,0.010836
2651.73,0.010806
2653.09,0.010804
2654.45,0.010934
2655.81,0.010963
2657.17,0.010761
2658.53,0.010636
2659.89,0.010643
2661.26,0.010642
2662.63,0.010548
2664.0,0.010306
2665.36,0.010357
2666.74,0.010574
2668.11,0.010569
2669.48,0.010441
2670.86,0.010327
2672.23,0.010325
2673.61,0.010131
2674.99,0.01002
2676.37,0.010126
2677.76,0.010346
2679.14,0.010274
2680.52,0.010087
2681.91,0.01013
2683.3,0.009988
2684.69,0.009884
2686.08,0.00987
2687.47,0.009828
2688.87,0.009883
2690.26,0.009897
2691.66,0.009866
2693.06,0.009903
2694.46,0.009841
2695.86,0.009736
2697.26,0.009792
2698.66,0.009775
2700.07,0.009556
2701.48,0.009529
2702.89,0.009536
2704.3,0.009474
2705.71,0.009432
2707.12,0.009447
2708.53,0.009264
2709.95,0.009158
2711.37,0.009251
2712.79,0.009353
2714.21,0.009216
2715.63,0.009073
2717.05,0.00909
2718.48,0.009155
2719.9,0.009078
2721.33,0.008887
2722.76,0.008963
2724.19,0.008948
2725.62,0.008905
2727.06,0.008895
2728.49,0.00877
2729.93,0.008644
2731.37,0.008722
2732.81,0.008798
2734.25,0.008634
2735.69,0.008479
2737.14,0.008395
2738.58,0.008401
2740.03,0.008436
2741.48,0.008376
2742.93,0.00824
2744.38,0.008213
2745.83,0.008206
2747.29,0.008229
2748.75,0.008174
2750.2,0.008147
2751.66,0.008201
2753.13,0.008069
2754.59,0.007942
2756.05,0.007985
2757.52,0.007954
2758.99,0.007901
2760.46,0.007838
2761.93,0.00776
2763.4,0.007749
2764.87,0.007706
2766.35,0.007598
2767.82,0.007452
2769.3,0.007376
2770.78,0.007337
2772.26,0.007338
2773.75,0.007259
2775.23,0.00726
2776.72,0.00735
2778.21,0.007237
2779.7,0.006997
2781.19,0.00695
2782.68,0.007077
2784.18,0.007181
2785.67,0.007145
2787.17,0.007049
2788.67,0.007108
2790.17,0.007077
2791.67,0.006917
2793.18,0.006868
2794.68,0.006746
2796.19,0.006687
2797.7,0.006746
2799.21,0.006755
2800.72,0.006877
2802.24,0.006921
2803.75,0.006897
2805.27,0.006886
2806.79,0.006831
2808.31,0.006698
2809.83,0.006551
2811.35,0.00656
2812.88,0.006549
2814.41,0.006463
2815.93,0.00643
2817.46,0.00645
2819.0,0.006478
2820.53,0.006553
2822.07,0.006666
2823.6,0.006572
2825.14,0.006412
2826.68,0.006456
2828.22,0.006327
2829.77,0.006215
2831.31,0.00631
2832.86,0.006269
2834.41,0.006238
2835.96,0.006302
2837.51,0.006311
2839.07,0.00628
2840.62,0.006306
2842.18,0.006386
2843.74,0.006383
2845.3,0.006352
2846.86,0.006334
2848.43,0.006336
2849.99,0.006281
2851.56,0.006201
2853.13,0.006081
2854.7,0.006016
2856.27,0.005974
2857.85,0.005957
2859.42,0.006033
2861.0,0.006087
2862.58,0.006129
2864.16,0.006125
2865.75,0.005989
2867.33,0.005924
2868.92,0.005952
2870.51,0.005973
2872.1,0.005933
2873.69,0.005946
2875.28,0.005983
2876.88,0.005836
2878.48,0.005745
2880.07,0.00584
2881.68,0.005828
2883.28,0.00577
2884.88,0.005872
2886.49,0.005891
2888.1,0.005815
2889.71,0.005772
2891.32,0.005763
2892.93,0.005694
2894.55,0.005629
2896.16,0.005688
2897.78,0.005769
2899.4,0.005734
2901.03,0.005746
2902.65,0.005777
2904.28,0.005708
2905.91,0.005574
2907.54,0.005488
2909.17,0.005574
2910.8,0.005588
2912.44,0.005573
2914.07,0.00558
2915.71,0.005523
2917.35,0.005481
2918.99,0.005395
2920.64,0.005454
2922.29,0.005516
2923.93,0.005398
2925.58,0.005371
2927.24,0.005447
2928.89,0.005456
2930.55,0.005469
2932.2,0.005435
2933.86,0.005389
2935.52,0.005334
2937.19,0.005344
2938.85,0.005294
2940.52,0.005203
2942.19,0.005208
2943.86,0.005196
2945.53,0.005134
2947.21,0.005061
2948.88,0.00505
2950.56,0.004977
2952.24,0.00499
2953.92,0.005001
2955.61,0.004973
2957.29,0.005013
2958.98,0.005152
2960.67,0.0052
2962.36,0.005127
2964.06,0.004976
2965.75,0.004991
2967.45,0.005045
2969.15,0.004978
2970.85,0.005057
2972.55,0.00501
2974.26,0.004967
2975.97,0.005081
2977.68,0.004982
2979.39,0.00472
2981.1,0.00481
2982.82,0.004995
2984.53,0.004894
2986.25,0.004807
2987.97,0.004822
2989.7,0.004826
2991.42,0.004832
2993.15,0.004782
2994.88,0.004775
2996.61,0.004814
2998.34,0.004873
3000.08,0.004922
3001.82,0.00496
3003.55,0.004921
3005.3,0.004905
3007.04,0.004934
3008.78,0.004785
3010.53,0.004735
3012.28,0.004799
3014.03,0.004769
3015.79,0.004864
3017.54,0.004862
3019.3,0.004807
3021.06,0.004849
3022.82,0.00483
3024.58,0.004861
3026.35,0.004858
3028.12,0.004897
3029.89,0.005002
3031.66,0.00499
3033.43,0.005024
3035.21,0.005078
3036.99,0.005171
3038.77,0.00522
3040.55,0.005291
3042.33,0.005372
3044.12,0.00537
3045.91,0.00536
3047.7,0.005344
3049.49,0.005478
3051.29,0.005631
3053.08,0.005685
3054.88,0.005688
3056.68,0.005662
3058.49,0.005811
3060.29,0.005938
3062.1,0.005979
3063.91,0.006095
3065.72,0.006277
3067.54,0.00635
3069.35,0.006265
3071.17,0.006335
3072.99,0.006432
3074.81,0.006553
3076.64,0.006563
3078.47,0.006617
3080.29,0.00676
3082.13,0.006805
3083.96,0.006784
3085.79,0.006763
3087.63,0.006788
3089.47,0.00691
3091.31,0.007003
3093.16,0.007091
3095.01,0.007208
3096.85,0.007294
3098.71,0.007333
3100.56,0.007384
3102.41,0.007407
3104.27,0.007382
3106.13,0.007432
3107.99,0.007494
3109.86,0.007492
3111.73,0.007446
3113.59,0.007576
3115.47,0.007674
3117.34,0.007604
3119.21,0.007638
3121.09,0.007775
3122.97,0.007808
3124.86,0.00777
3126.74,0.00775
3128.63,0.007759
3130.52,0.007823
3132.41,0.007878
3134.3,0.007847
3136.2,0.007933
3138.1,0.008045
3140.0,0.008049
3141.9,0.008046
3143.81,0.00811
3145.71,0.008144
3147.62,0.00808
3149.54,0.008074
3151.45,0.008073
3153.37,0.008063
3155.29,0.008079
3157.21,0.008003
3159.13,0.008062
3161.06,0.008145
3162.99,0.008072
3164.92,0.008075
3166.85,0.008111
3168.79,0.008094
3170.72,0.00811
3172.67,0.008022
3174.61,0.007998
3176.55,0.008016
3178.5,0.008084
3180.45,0.008073
3182.4,0.008051
3184.36,0.008124
3186.32,0.008078
3188.27,0.008025
3190.24,0.008006
3192.2,0.007974
3194.17,0.007975
3196.14,0.007937
3198.11,0.007883
3200.08,0.007939
3202.06,0.008057
3204.04,0.008022
3206.02,0.007967
3208.0,0.007979
3209.99,0.007959
3211.98,0.00797
3213.97,0.008071
3215.96,0.008019
3217.96,0.007988
3219.96,0.008053
3221.96,0.008092
3223.96,0.008083
3225.97,0.008077
3227.98,0.008055
3229.99,0.008041
3232.0,0.008055
3234.02,0.008041
3236.04,0.008051
3238.06,0.008203
3240.08,0.008203
3242.11,0.008105
3244.14,0.008121
3246.17,0.008167
3248.2,0.008244
3250.24,0.008238
3252.28,0.00813
3254.32,0.008121
3256.37,0.008225
3258.41,0.008362
3260.46,0.008419
3262.51,0.008427
3264.57,0.00847
3266.63,0.008492
3268.69,0.008454
3270.75,0.00842
3272.81,0.008475
3274.88,0.008551
3276.95,0.008628
3279.02,0.008612
3281.1,0.008655
3283.18,0.008625
3285.26,0.008561
3287.34,0.008658
3289.43,0.008782
3291.51,0.00882
3293.61,0.008831
3295.7,0.008794
3297.8,0.008803
3299.9,0.008783
3302.0,0.008752
3304.1,0.008742
3306.21,0.008842
3308.32,0.008988
3310.43,0.008957
3312.55,0.00886
3314.66,0.008869
3316.79,0.008976
3318.91,0.009032
3321.03,0.008954
3323.16,0.00886
3325.29,0.008932
3327.43,0.009044
3329.57,0.008975
3331.71,0.008935
3333.85,0.008939
3335.99,0.008897
3338.14,0.008935
3340.29,0.008971
3342.45,0.008996
3344.6,0.009022
3346.76,0.009036
3348.92,0.008977
3351.09,0.009012
3353.26,0.009051
3355.43,0.008982
3357.6,0.009017
3359.78,0.009061
3361.96,0.009041
3364.14,0.009027
3366.32,0.008986
3368.51,0.00899
3370.7,0.008979
3372.89,0.009043
3375.09,0.009015
3377.29,0.008883
3379.49,0.008881
3381.69,0.008921
3383.9,0.008912
3386.11,0.008912
3388.32,0.008936
3390.54,0.008899
3392.76,0.008889
3394.98,0.008965
3397.21,0.009003
3399.43,0.008965
3401.66,0.008965
3403.9,0.008887
3406.13,0.008852
3408.37,0.008874
3410.61,0.008908
3412.86,0.008909
3415.11,0.008953
3417.36,0.008953
3419.61,0.008952
3421.87,0.008933
3424.13,0.008972
3426.39,0.008953
3428.66,0.008872
3430.93,0.008862
3433.2,0.008878
3435.48,0.008893
3437.76,0.008851
3440.04,0.008776
3442.32,0.00875
3444.61,0.008798
3446.9,0.008794
3449.19,0.008763
3451.49,0.008741
3453.79,0.008727
3456.09,0.008767
3458.4,0.008734
3460.7,0.008675
3463.02,0.008688
3465.33,0.008656
3467.65,0.008688
3469.97,0.008775
3472.29,0.008762
3474.62,0.008715
3476.95,0.008652
3479.29,0.008694
3481.62,0.008814
3483.96,0.008766
3486.3,0.008696
3488.65,0.008746
3491.0,0.008768
3493.35,0.00873
3495.71,0.008789
3498.07,0.008855
3500.43,0.008881
3502.79,0.008817
3505.16,0.008832
3507.53,0.008834
3509.91,0.008756
3512.29,0.008764
3514.67,0.008835
3517.05,0.008823
3519.44,0.008838
3521.83,0.008771
3524.23,0.00879
3526.62,0.008893
3529.02,0.008909
3531.43,0.008856
3533.83,0.008843
3536.24,0.008852
3538.66,0.008842
3541.08,0.008884
3543.5,0.008895
3545.92,0.008932
3548.35,0.008971
3550.78,0.008942
3553.21,0.008903
3555.65,0.008913
3558.09,0.008976
3560.53,0.008976
3562.98,0.008957
3565.43,0.00895
3567.88,0.008917
3570.34,0.00893
3572.8,0.008998
3575.27,0.008961
3577.73,0.008947
3580.2,0.008979
3582.68,0.008955
3585.16,0.008951
3587.64,0.008942
3590.12,0.008939
3592.61,0.008918
3595.1,0.00886
3597.6,0.008866
3600.09,0.008853
3602.6,0.008893
3605.1,0.008889
3607.61,0.00882
3610.12,0.008793
3612.64,0.008805
3615.16,0.008815
3617.68,0.008797
3620.21,0.008763
3622.74,0.008806
3625.27,0.008821
3627.81,0.008836
3630.35,0.008842
3632.89,0.008812
3635.44,0.008812
3637.99,0.008897
3640.54,0.008928
3643.1,0.00886
3645.66,0.00884
3648.23,0.008813
3650.8,0.008769
3653.37,0.008765
3655.95,0.008825
3658.53,0.008819
3661.11,0.008746
3663.7,0.008726
3666.29,0.008748
3668.89,0.008778
3671.48,0.008721
3674.09,0.008663
3676.69,0.008703
3679.3,0.008775
3681.91,0.008818
3684.53,0.00875
3687.15,0.008708
3689.78,0.008708
3692.4,0.008719
3695.04,0.008707
3697.67,0.008679
3700.31,0.008681
3702.95,0.008666
3705.6,0.008672
3708.25,0.008676
3710.91,0.008649
3713.56,0.008704
3716.23,0.008724
3718.89,0.008658
3721.56,0.008611
3724.23,0.008572
3726.91,0.008552
3729.59,0.008576
3732.28,0.008584
3734.97,0.008602
3737.66,0.008649
3740.36,0.008629
3743.06,0.008599
3745.76,0.00854
3748.47,0.008537
3751.18,0.008578
3753.9,0.008647
3756.62,0.008655
3759.34,0.0086
3762.07,0.008571
3764.8,0.008567
3767.54,0.008593
3770.28,0.008569
3773.02,0.008551
3775.77,0.008563
3778.52,0.008565
3781.28,0.00854
3784.04,0.008514
3786.8,0.008509
3789.57,0.008531
3792.34,0.008576
3795.12,0.008543
3797.9,0.008535
3800.69,0.008535
3803.47,0.008527
3806.27,0.008517
3809.06,0.008481
3811.86,0.008517
3814.67,0.008522
3817.48,0.008499
3820.29,0.008516
3823.11,0.00855
3825.93,0.008599
3828.76,0.008565
3831.59,0.008468
3834.42,0.008461
3837.26,0.008506
3840.1,0.008534
3842.95,0.008607
3845.8,0.008605
3848.65,0.008598
3851.51,0.008646
3854.38,0.008628
3857.24,0.008588
3860.12,0.008547
3862.99,0.008507
3865.87,0.008501
3868.76,0.008554
3871.65,0.008569
3874.54,0.008552
3877.44,0.008549
3880.34,0.008515
3883.25,0.008547
3886.16,0.00858
3889.07,0.008596
3891.99,0.00856
3894.92,0.008546
3897.85,0.008567
3900.78,0.008582
3903.72,0.008573
3906.66,0.008544
3909.6,0.008573
3912.55,0.008615
3915.51,0.008598
3918.47,0.008545
3921.43,0.008541
3924.4,0.008527
3927.38,0.008487
3930.35,0.008506
3933.33,0.008552
3936.32,0.008584
3939.31,0.008529
3942.31,0.00851
3945.31,0.008581
3948.31,0.008627
3951.32,0.008588
3954.34,0.008524
3957.35,0.00854
3960.38,0.00858
3963.41,0.008588
3966.44,0.008544
3969.48,0.008546
3972.52,0.00853
3975.56,0.0085
3978.61,0.00846
3981.67,0.008421
3984.73,0.00845
3987.8,0.00849
3990.87,0.008517
3993.94,0.008505
3997.02,0.008481
4000.1,0.008497
4003.19,0.008504
4006.29,0.008473
4009.39,0.008488
4012.49,0.008506
4015.6,0.008513
4018.71,0.008488
4021.83,0.00847
4024.95,0.00849
4028.08,0.008512
4031.21,0.00856
4034.35,0.008549
4037.49,0.008506
4040.64,0.008512
4043.79,0.008519
4046.94,0.008511
4050.11,0.008576
4053.27,0.008615
4056.44,0.008553
4059.62,0.008505
4062.8,0.008518
4065.99,0.008543
4069.18,0.008523
4072.38,0.008512
4075.58,0.008546
4078.78,0.008551
4082.0,0.008505
4085.21,0.008515
4088.43,0.008544
4091.66,0.008515
4094.89,0.008522
4098.13,0.00855
4101.37,0.008526
4104.62,0.008551
4107.87,0.008563
4111.13,0.008541
4114.39,0.008554
4117.66,0.008555
4120.93,0.008489
4124.21,0.00845
4127.5,0.008458
4130.79,0.00845
4134.08,0.008467
4137.38,0.008458
4140.68,0.008475
4143.99,0.00854
4147.31,0.008519
4150.63,0.008468
4153.95,0.008468
4157.29,0.00846
4160.62,0.008489
4163.96,0.008509
4167.31,0.008531
4170.66,0.008531
4174.02,0.008501
4177.39,0.008526
4180.75,0.008536
4184.13,0.008542
4187.51,0.00854
4190.89,0.008518
4194.28,0.008526
4197.68,0.008514
4201.08,0.008488
4204.49,0.008483
4207.9,0.008478
4211.32,0.00851
4214.74,0.008511
4218.17,0.008422
4221.61,0.008383
4225.05,0.008336
4228.5,0.008294
4231.95,0.008347
4235.4,0.008369
4238.87,0.008348
4242.34,0.008367
4245.81,0.008404
4249.29,0.008401
4252.78,0.008381
4256.27,0.00841
4259.77,0.008372
4263.27,0.008359
4266.78,0.008365
4270.29,0.008348
4273.81,0.00827
4277.34,0.008251
4280.87,0.008289
4284.41,0.008249
4287.95,0.008265
4291.5,0.008302
4295.06,0.008262
4298.62,0.00826
4302.19,0.008323
4305.76,0.008358
4309.34,0.008306
4312.92,0.008259
4316.52,0.008252
4320.11,0.008329
4323.72,0.008332
4327.32,0.008263
4330.94,0.008231
4334.56,0.00825
4338.19,0.008237
4341.82,0.008214
4345.46,0.008168
4349.11,0.008174
4352.76,0.008213
4356.42,0.008228
4360.08,0.008203
4363.75,0.00816
4367.43,0.008201
4371.11,0.008211
4374.8,0.00821
4378.49,0.008176
4382.19,0.008168
4385.9,0.008189
4389.61,0.008146
4393.33,0.008113
4397.06,0.008105
4400.79,0.008154
4404.53,0.008181
4408.28,0.008165
4412.03,0.008125
4415.79,0.008129
4419.55,0.008173
4423.32,0.008117
4427.1,0.008057
4430.88,0.008032
4434.68,0.007996
4438.47,0.008041
4442.28,0.008076
4446.08,0.008057
4449.9,0.008036
4453.72,0.008025
4457.55,0.008026
4461.39,0.008033
4465.23,0.007996
4469.08,0.007951
4472.94,0.007975
4476.8,0.008033
4480.67,0.008021
4484.55,0.007955
4488.43,0.007967
4492.32,0.007986
4496.21,0.007923
4500.12,0.00788
4504.03,0.007883
4507.94,0.007892
4511.87,0.007914
4515.8,0.007927
4519.73,0.007891
4523.68,0.007798
4527.63,0.007759
4531.59,0.007803
4535.55,0.00784
4539.52,0.007797
4543.5,0.007756
4547.49,0.007798
4551.48,0.007794
4555.48,0.007767
4559.49,0.007773
4563.5,0.007769
4567.52,0.007774
4571.55,0.007775
4575.58,0.007763
4579.63,0.007748
4583.67,0.007732
4587.73,0.007725
4591.79,0.00768
4595.86,0.007677
4599.94,0.007733
4604.03,0.007757
4608.12,0.007695
4612.22,0.007686
4616.33,0.007723
4620.44,0.00774
4624.56,0.007726
4628.69,0.007709
4632.83,0.00769
4636.97,0.007658
4641.12,0.007635
4645.28,0.007636
4649.45,0.007642
4653.62,0.007631
4657.8,0.007641
4661.99,0.007643
4666.19,0.007634
4670.39,0.0076
4674.6,0.007589
4678.82,0.007591
4683.05,0.007548
4687.28,0.007543
4691.52,0.00757
4695.77,0.007547
4700.03,0.007517
4704.3,0.00752
4708.57,0.0075
4712.85,0.007478
4717.14,0.007463
4721.43,0.007457
4725.74,0.007455
4730.05,0.007432
4734.37,0.007431
4738.7,0.007455
4743.03,0.007464
4747.38,0.007447
4751.73,0.007398
4756.09,0.007407
4760.45,0.00741
4764.83,0.007407
4769.21,0.007415
4773.6,0.007386
4778.0,0.00741
4782.41,0.007432
4786.83,0.007417
4791.25,0.007393
4795.68,0.007363
4800.13,0.007329
4804.57,0.007315
4809.03,0.00734
4813.5,0.007367
4817.97,0.007349
4822.45,0.007327
4826.94,0.007316
4831.44,0.00728
4835.95,0.007259
4840.46,0.007264
4844.99,0.0073
4849.52,0.00734
4854.06,0.00726
4858.61,0.007215
4863.17,0.007245
4867.73,0.007281
4872.31,0.007256
4876.89,0.007263
4881.48,0.007279
4886.08,0.007253
4890.69,0.00726
4895.31,0.007282
4899.94,0.007235
4904.57,0.007201
4909.22,0.007195
4913.87,0.007196
4918.53,0.007213
4923.21,0.007217
4927.88,0.007199
4932.57,0.007188
4937.27,0.007203
4941.98,0.007218
4946.69,0.007211
4951.42,0.00721
4956.15,0.007245
4960.9,0.00728
4965.65,0.007264
4970.41,0.007238
4975.18,0.007223
4979.96,0.007205
4984.75,0.007185
4989.54,0.007195
4994.35,0.007165
4999.17,0.007164
5003.99,0.007173
5008.83,0.007145
5013.67,0.007139
5018.52,0.007137
5023.39,0.00716
5028.26,0.00716
5033.14,0.007146
5038.03,0.007132
5042.93,0.007098
5047.84,0.007103
5052.76,0.007104
5057.69,0.007103
5062.63,0.007176
5067.58,0.007188
5072.54,0.007134
5077.51,0.007093
5082.49,0.007087
5087.47,0.007149
5092.47,0.00713
5097.48,0.007084
5102.5,0.007097
5107.52,0.007119
5112.56,0.007128
5117.61,0.007074
5122.66,0.007031
5127.73,0.007022
5132.81,0.007049
5137.89,0.007058
5142.99,0.007051
5148.1,0.00706
5153.22,0.007013
5158.34,0.006998
5163.48,0.007036
5168.63,0.007028
5173.79,0.007003
5178.96,0.00698
5184.13,0.006968
5189.32,0.006943
5194.52,0.006942
5199.73,0.006992
5204.96,0.00699
5210.19,0.006968
5215.43,0.006931
5220.68,0.006909
5225.94,0.006916
5231.22,0.006933
5236.5,0.006937
5241.79,0.006891
5247.1,0.006825
5252.42,0.00685
5257.74,0.006883
5263.08,0.006858
5268.43,0.006842
5273.79,0.006837
5279.16,0.00684
5284.54,0.00683
5289.93,0.006825
5295.34,0.006827
5300.75,0.006812
5306.18,0.00681
5311.61,0.006791
5317.06,0.006712
5322.52,0.006693
5327.99,0.006738
5333.47,0.006723
5338.96,0.006705
5344.47,0.006711
5349.98,0.00667
5355.51,0.006637
5361.05,0.006668
5366.6,0.00665
5372.16,0.006626
5377.73,0.006628
5383.32,0.006616
5388.91,0.00663
5394.52,0.006634
5400.14,0.006644
5405.77,0.006638
5411.41,0.006606
5417.07,0.006587
5422.74,0.006529
5428.41,0.006485
5434.1,0.006524
5439.81,0.006552
5445.52,0.006528
5451.25,0.00649
5456.98,0.00651
5462.73,0.006511
5468.5,0.006492
5474.27,0.006465
5480.06,0.006447
5485.86,0.006445
5491.67,0.006449
5497.49,0.006448
5503.33,0.006421
5509.18,0.006425
5515.04,0.006421
5520.91,0.006383
5526.8,0.006386
5532.69,0.006384
5538.61,0.006377
5544.53,0.006404
5550.47,0.006402
5556.41,0.006344
5562.38,0.006345
5568.35,0.006356
5574.34,0.006351
5580.34,0.006307
5586.35,0.006284
5592.38,0.006334
5598.42,0.006318
5604.47,0.006277
5610.54,0.006283
5616.61,0.006288
5622.71,0.006337
5628.81,0.006317
5634.93,0.006259
5641.06,0.006248
5647.21,0.006244
5653.36,0.006215
5659.54,0.006223
5665.72,0.006255
5671.92,0.006232
5678.13,0.006207
5684.36,0.006188
5690.6,0.0062
5696.85,0.006212
5703.12,0.00619
5709.4,0.006167
5715.69,0.006158
5722.0,0.006131
5728.33,0.006139
5734.66,0.006147
5741.01,0.006159
5747.38,0.006182
5753.76,0.006155
5760.15,0.006089
5766.56,0.006089
5772.98,0.006148
5779.41,0.006175
5785.86,0.006155
5792.33,0.006105
5798.81,0.006046
5805.3,0.006006
5811.81,0.006001
5818.33,0.005982
5824.87,0.005964
5831.42,0.005975
5837.99,0.00597
5844.57,0.005942
5851.17,0.005925
5857.78,0.005938
5864.41,0.005943
5871.05,0.005924
5877.7,0.005906
5884.38,0.00594
5891.06,0.005976
5897.76,0.005946
5904.48,0.00594
5911.21,0.005958
5917.96,0.005964
5924.73,0.006002
5931.5,0.006017
5938.3,0.005996
5945.11,0.006031
5951.93,0.006056
5958.78,0.006011
5965.63,0.00596
5972.51,0.005975
5979.39,0.005999
5986.3,0.006013
5993.22,0.006027
6000.16,0.006049
6007.11,0.006026
6014.08,0.005993
6021.06,0.006012
6028.06,0.006046
6035.08,0.006046
6042.12,0.006082
6049.17,0.00608
6056.23,0.006043
6063.32,0.006032
6070.42,0.006019
6077.53,0.005993
6084.67,0.005963
6091.82,0.005972
6098.98,0.006004
6106.17,0.00597
6113.37,0.00592
6120.58,0.005922
6127.82,0.005916
6135.07,0.005908
6142.34,0.005933
6149.63,0.005929
6156.93,0.005929
6164.25,0.005922
6171.59,0.005893
6178.95,0.00586
6186.32,0.005832
6193.71,0.00583
6201.12,0.00586
6208.54,0.005878
6215.99,0.005867
6223.45,0.005807
6230.93,0.005717
6238.43,0.005669
6245.95,0.005703
6253.48,0.005734
6261.03,0.005718
6268.6,0.005682
6276.19,0.005636
6283.8,0.005598
6291.43,0.005611
6299.07,0.005602
6306.73,0.005548
6314.42,0.005543
6322.12,0.005571
6329.84,0.005519
6337.57,0.005429
6345.33,0.005435
6353.11,0.00542
6360.9,0.005367
6368.72,0.005344
6376.55,0.005321
6384.4,0.005319
6392.27,0.005288
6400.17,0.005275
6408.08,0.005256
6416.01,0.005138
6423.96,0.005079
6431.93,0.005091
6439.92,0.005081
6447.93,0.005078
6455.96,0.005054
6464.01,0.005005
6472.08,0.004937
6480.17,0.004887
6488.28,0.004855
6496.41,0.004806
6504.56,0.004736
6512.73,0.004708
6520.92,0.004673
6529.14,0.004604
6537.37,0.004543
6545.63,0.004467
6553.9,0.004393
6562.2,0.004299
6570.51,0.004262
6578.85,0.004272
6587.21,0.004206
6595.59,0.00416
6603.99,0.004135
6612.42,0.004054
6620.86,0.003962
6629.33,0.003864
6637.82,0.003813
6646.33,0.003706
6654.86,0.003663
6663.41,0.003597
6671.99,0.003482
6680.59,0.003427
6689.21,0.003387
6697.85,0.003309
6706.51,0.003262
6715.2,0.003222
6723.91,0.003155
6732.64,0.003117
6741.4,0.00312
6750.18,0.00311
6758.98,0.003114
6767.8,0.003185
6776.65,0.003296
6785.52,0.003417
6794.41,0.003565
6803.33,0.003754
6812.27,0.003943
6821.23,0.004149
6830.22,0.004352
6839.23,0.004531
6848.26,0.004726
6857.32,0.00497
6866.4,0.005224
6875.51,0.005515
6884.64,0.005761
6893.8,0.006004
6902.98,0.006314
6912.18,0.006657
6921.41,0.007003
6930.66,0.007375
6939.94,0.007775
6949.24,0.008185
6958.57,0.008594
6967.92,0.009058
6977.3,0.009493
6986.7,0.009889
6996.13,0.010253
7005.59,0.010525
7015.07,0.010707
7024.57,0.010818
7034.1,0.010927
7043.66,0.010987
7053.25,0.01096
7062.85,0.01095
7072.49,0.010866
7082.15,0.010731
7091.84,0.010623
7101.55,0.01048
7111.3,0.010284
7121.06,0.010123
7130.86,0.009974
7140.68,0.009791
7150.53,0.009619
7160.41,0.009392
7170.31,0.009172
7180.24,0.00898
7190.2,0.008816
7200.19,0.008695
7210.2,0.008489
7220.24,0.008282
7230.31,0.00813
7240.41,0.007998
7250.54,0.007853
7260.69,0.007697
7270.88,0.007536
7281.09,0.007395
7291.33,0.007257
7301.6,0.007125
7311.9,0.007015
7322.22,0.00688
7332.58,0.00678
7342.97,0.00667
7353.38,0.006591
7363.83,0.006497
7374.3,0.006391
7384.81,0.006303
7395.34,0.006252
7405.91,0.006174
7416.5,0.006059
7427.13,0.005937
7437.78,0.005862
7448.47,0.005815
7459.19,0.005729
7469.94,0.005639
7480.71,0.005564
7491.52,0.005518
7502.37,0.005398
7513.24,0.005311
7524.14,0.005274
7535.08,0.005183
7546.05,0.005123
7557.05,0.005044
7568.08,0.004923
7579.15,0.004858
7590.24,0.004814
7601.37,0.004742
7612.53,0.00466
7623.73,0.004574
7634.96,0.004496
7646.22,0.004397
7657.51,0.004329
7668.84,0.004268
7680.2,0.004159
7691.59,0.004082
7703.02,0.003992
7714.49,0.003892
7725.98,0.003808
7737.52,0.003742
7749.08,0.00367
7760.68,0.003529
7772.32,0.00343
7783.99,0.003371
7795.69,0.003312
7807.43,0.003223
7819.21,0.003109
7831.02,0.00297
7842.87,0.002876
7854.75,0.002779
7866.67,0.002708
7878.62,0.00263
7890.62,0.002502
7902.64,0.002403
7914.71,0.002296
7926.81,0.002182
7938.95,0.002149
7951.13,0.002133
7963.34,0.002041
7975.59,0.001991
7987.88,0.002008
8000.21,0.002028
8012.57,0.002096
8024.98,0.002235
8037.42,0.002394
8049.9,0.002585
8062.42,0.002782
8074.98,0.003025
8087.57,0.003372
8100.21,0.003745
8112.89,0.00404
8125.6,0.004365
8138.36,0.004721
8151.16,0.005099
8163.99,0.005531
8176.87,0.005965
8189.79,0.006384
8202.75,0.006856
8215.75,0.007302
8228.79,0.007683
8241.87,0.008081
8254.99,0.008496
8268.16,0.008858
8281.37,0.009259
8294.62,0.009684
8307.91,0.010013
8321.24,0.010343
8334.62,0.010702
8348.04,0.011009
8361.51,0.011321
8375.02,0.011599
8388.57,0.011951
8402.16,0.0123
8415.8,0.012597
8429.49,0.012885
8443.22,0.013189
8456.99,0.013522
8470.81,0.013884
8484.67,0.014256
8498.58,0.014617
8512.54,0.014957
8526.54,0.015277
8540.58,0.015551
8554.68,0.015795
8568.82,0.016049
8583.0,0.01632
8597.24,0.016565
8611.52,0.016836
8625.85,0.01712
8640.23,0.017476
8654.65,0.017781
8669.12,0.018112
8683.64,0.018489
8698.21,0.018788
8712.83,0.019125
8727.5,0.019529
8742.22,0.019839
8756.99,0.020045
8771.8,0.020256
8786.67,0.020472
8801.59,0.020694
8816.56,0.020887
8831.58,0.021087
8846.65,0.021337
8861.77,0.02163
8876.94,0.021909
8892.17,0.022093
8907.45,0.022256
8922.78,0.022492
8938.16,0.022743
8953.6,0.022986
8969.09,0.023265
8984.64,0.02355
9000.23,0.023832
9015.89,0.024077
9031.59,0.024388
9047.36,0.024625
9063.17,0.024724
9079.05,0.02472
9094.97,0.024709
9110.96,0.024693
9127.0,0.024633
9143.1,0.024545
9159.25,0.02447
9175.46,0.024474
9191.73,0.024546
9208.06,0.024565
9224.44,0.02459
9240.88,0.024611
9257.38,0.024617
9273.94,0.024568
9290.56,0.02439
9307.24,0.024188
9323.98,0.023964
9340.78,0.023707
9357.64,0.023457
9374.57,0.023266
9391.55,0.023033
9408.59,0.022718
9425.7,0.022428
9442.87,0.022197
9460.1,0.02209
9477.4,0.021961
9494.75,0.021736
9512.17,0.021587
9529.66,0.021457
9547.21,0.021243
9564.83,0.021087
9582.5,0.020937
9600.25,0.020813
9618.06,0.020701
9635.94,0.020488
9653.88,0.020323
9671.89,0.020187
9689.97,0.019944
9708.12,0.019799
9726.33,0.019615
9744.62,0.019364
9762.97,0.019105
9781.39,0.018836
9799.88,0.018559
9818.44,0.018283
9837.07,0.018029
9855.77,0.017731
9874.54,0.017438
9893.39,0.017166
9912.3,0.016924
9931.29,0.016668
9950.36,0.016431
9969.49,0.016265
9988.7,0.016128
10007.98,0.015965
10027.34,0.015888
10046.77,0.015836
10066.28,0.015756
10085.87,0.015654
10105.53,0.015509
10125.26,0.015429
10145.08,0.015362
10164.97,0.015148
10184.94,0.01494
10204.99,0.014933
10225.12,0.015055
10245.33,0.015022
10265.61,0.014889
10285.98,0.014806
10306.43,0.014775
10326.96,0.014703
10347.57,0.014563
10368.27,0.014436
10389.05,0.014382
10409.91,0.01432
10430.86,0.014193
10451.88,0.014146
10473.0,0.014078
10494.2,0.013937
10515.49,0.013766
10536.86,0.01364
10558.32,0.013602
10579.87,0.013506
10601.5,0.013376
10623.23,0.013265
10645.04,0.013163
10666.94,0.013061
10688.94,0.012907
10711.02,0.012803
10733.2,0.012667
10755.47,0.012521
10777.83,0.01241
10800.28,0.012357
10822.83,0.012328
10845.47,0.012228
10868.21,0.012079
10891.04,0.011992
10913.97,0.011916
10936.99,0.011814
10960.12,0.011728
10983.34,0.011682
11006.66,0.01163
11030.07,0.011559
11053.59,0.011516
11077.21,0.011417
11100.93,0.011234
11124.75,0.011121
11148.68,0.011068
11172.71,0.010939
11196.84,0.010873
11221.07,0.010843
11245.41,0.010742
11269.86,0.010678
11294.41,0.010665
11319.07,0.010606
11343.84,0.010511
11368.72,0.010436
11393.7,0.010377
11418.8,0.01035
11444.01,0.010236
11469.33,0.010134
11494.76,0.01009
11520.3,0.010027
11545.96,0.00998
11571.73,0.009953
11597.62,0.009831
11623.62,0.009725
11649.74,0.009699
11675.98,0.009677
11702.34,0.009697
11728.81,0.00972
11755.41,0.009601
11782.13,0.009525
11808.96,0.00952
11835.92,0.009446
11863.01,0.009295
11890.22,0.009284
11917.55,0.009324
11945.01,0.009262
11972.6,0.009157
12000.31,0.009084
12028.16,0.009044
12056.13,0.009007
12084.23,0.00892
12112.46,0.008865
12140.83,0.008815
12169.33,0.008771
12197.96,0.00874
12226.73,0.008756
12255.64,0.008712
12284.68,0.00863
12313.86,0.008571
12343.18,0.008579
12372.64,0.00855
12402.24,0.008509
12431.98,0.008493
12461.86,0.008455
12491.89,0.00846
12522.07,0.008521
12552.38,0.008495
12582.85,0.008335
12613.47,0.008203
12644.23,0.008145
12675.15,0.008166
12706.21,0.0082
12737.43,0.008143
12768.81,0.008019
12800.33,0.00795
12832.02,0.00792
12863.86,0.007891
12895.86,0.00788
12928.02,0.007836
12960.34,0.007793
12992.82,0.007776
13025.46,0.007783
13058.27,0.007754
13091.25,0.007726
13124.39,0.007659
13157.7,0.007591
13191.18,0.007566
13224.83,0.007484
13258.66,0.00747
13292.65,0.007502
13326.83,0.007445
13361.17,0.007436
13395.7,0.00741
13430.4,0.007345
13465.29,0.007317
13500.35,0.007305
13535.6,0.007233
13571.03,0.007142
13606.65,0.007162
13642.46,0.007192
13678.46,0.007232
13714.64,0.007138
13751.02,0.006987
13787.59,0.007018
13824.36,0.007067
13861.32,0.007025
13898.49,0.006925
13935.85,0.006937
13973.41,0.006956
14011.17,0.006887
14049.15,0.006816
14087.32,0.006736
14125.71,0.006727
14164.3,0.006727
14203.11,0.006624
14242.13,0.00654
14281.36,0.006475
14320.81,0.006385
14360.49,0.006305
14400.38,0.006313
14440.49,0.006337
14480.82,0.006317
14521.39,0.006132
14562.18,0.005976
14603.2,0.005928
14644.45,0.005845
14685.93,0.005755
14727.66,0.005751
14769.62,0.005658
14811.81,0.005495
14854.25,0.005446
14896.94,0.005428
14939.87,0.005315
14983.05,0.005299
15026.48,0.005474
15070.16,0.005485
15114.1,0.005495
15158.29,0.005654
15202.74,0.005817
15247.46,0.005924
15292.43,0.005835
15337.68,0.005952
15383.19,0.006216
15428.97,0.006307
15475.03,0.006362
15521.36,0.006546
15567.97,0.006638
15614.87,0.006628
15662.04,0.006587
15709.5,0.006639
15757.25,0.006719
15805.29,0.006986
15853.62,0.007318
15902.26,0.007638
15951.19,0.008085
16000.42,0.008446
16049.95,0.008673
16099.8,0.008988
16149.95,0.009279
16200.42,0.009574
16251.21,0.009887
16302.31,0.010099
16353.74,0.010162
16405.49,0.010289
16457.57,0.010414
16509.98,0.010549
16562.73,0.010768
16615.82,0.01096
16669.24,0.010888
16723.02,0.010755
16777.14,0.010478
16831.61,0.010119
16886.43,0.009756
16941.62,0.009458
16997.16,0.009209
17053.08,0.008904
17109.36,0.008595
17166.01,0.008379
17223.04,0.008134
17280.45,0.00787
17338.24,0.007724
17396.43,0.007864
17455.0,0.007933
17513.97,0.007699
17573.34,0.007315
17633.11,0.007296
17693.29,0.007489
17753.89,0.00735
17814.9,0.007222
17876.33,0.007211
17938.18,0.007016
18000.47,0.006935
18063.19,0.007036
18126.35,0.007081
18189.95,0.007097
18254.0,0.007074
18318.5,0.007042
18383.46,0.007007
18448.88,0.006958
18514.77,0.00685
18581.13,0.006765
18647.97,0.006791
18715.29,0.00683
18783.1,0.006859
18851.4,0.006815
18920.2,0.006532
18989.51,0.006294
19059.32,0.006289
19129.65,0.006279
19200.5,0.006239
19271.88,0.006154
19343.79,0.006058
19416.24,0.006063
19489.23,0.005992
19562.77,0.005756
19636.88,0.005777
19711.54,0.005699
19786.78,0.005651
19862.59,0.005973
19938.98,0.006038
20015.96,0.005706
20093.55,0.005545
20171.73,0.005597
20250.53,0.005653
20329.94,0.005432
20409.98,0.005588
20490.65,0.00583
20571.96,0.005805
20653.92,0.005587
20736.54,0.005469
20819.82,0.005245
20903.77,0.005449
20988.4,0.005534
21073.72,0.005256
21159.73,0.005223
21246.46,0.005105
21333.89,0.005333
21422.04,0.005406
21510.93,0.005085
21600.56,0.005159
21690.94,0.005358
21782.08,0.005239
21873.99,0.005015
21966.67,0.004817
22060.15,0.004996
22154.42,0.005159
22249.51,0.005271
22345.41,0.005342
22442.14,0.004932
22539.72,0.004625
22638.14,0.004791
22737.43,0.004779
22837.6,0.004884
22938.65,0.004911
23040.6,0.004837
23143.46,0.00488
23247.24,0.004912
23351.96,0.004684
23457.63,0.004336
23564.25,0.004203
23671.85,0.004637
23780.44,0.004913
23890.02,0.004794
24000.63,0.004664
24112.26,0.004354
24224.93,0.003973
24338.66,0.004228
24453.47,0.0045
24569.36,0.004542
24686.36,0.004549
24804.47,0.003758
24923.73,0.003803
25044.13,0.003559
25165.71,0.00314
25288.46,0.003786
25412.43,0.003381
25537.61,0.002883
25664.04,0.003223
25791.72,0.0034
25920.68,0.00303
