Database of Origin,University of Winnipeg Spectrophotometer Facility
Sample Description,9.2. MAGNETITE: Merged RELAB & Nicole / Merged at 2.5 um / different viewing geometry
Date Added,2016-07-15 22:03:00.389724

Data ID,RPN_MAG_17          
Sample ID,MAG117
Mineral Name,Magnetite
Grain Size,<45
Viewing Geometry,30 / 0 | 30
Resolution,1.2-129
Material Class,Magnetite

Wavelength
305.0,0.030318
310.0,0.030814
315.0,0.031545
320.0,0.031911
325.0,0.031998
330.0,0.031676
335.0,0.032432
340.0,0.033088
345.0,0.033042
350.0,0.033428
355.0,0.033854
360.0,0.034111
365.0,0.034455
370.0,0.03499
375.0,0.035996
380.0,0.036455
385.0,0.037001
390.0,0.037649
395.0,0.038768
400.0,0.039602
405.0,0.040495
410.0,0.041059
415.0,0.041975
420.0,0.04261
425.0,0.043564
430.0,0.044853
435.0,0.046146
440.0,0.047792
445.0,0.0489
450.0,0.049718
455.0,0.050361
460.0,0.050775
465.0,0.050845
470.0,0.051175
475.0,0.051406
480.0,0.051971
485.0,0.052504
490.0,0.053111
495.0,0.054098
500.0,0.05528
505.0,0.056526
510.0,0.057969
515.0,0.059786
520.0,0.061379
525.0,0.063448
530.0,0.065586
535.0,0.067354
540.0,0.069532
545.0,0.072097
550.0,0.074176
555.0,0.076239
560.0,0.0783
565.0,0.080299
570.0,0.082091
575.0,0.083769
580.0,0.085282
585.0,0.086727
590.0,0.087867
595.0,0.089047
600.0,0.089764
605.0,0.090467
610.0,0.09104
615.0,0.091489
620.0,0.091968
625.0,0.092341
630.0,0.092668
635.0,0.093035
640.0,0.093473
645.0,0.093562
650.0,0.09392
655.0,0.094066
660.0,0.094393
665.0,0.094659
670.0,0.094377
675.0,0.094783
680.0,0.095324
685.0,0.095618
690.0,0.095995
695.0,0.096797
700.0,0.09648
705.0,0.09691
710.0,0.09726
715.0,0.097721
720.0,0.098197
725.0,0.098488
730.0,0.09885
735.0,0.099099
740.0,0.099153
745.0,0.099454
750.0,0.099417
755.0,0.099487
760.0,0.09943
765.0,0.09918
770.0,0.099214
775.0,0.098844
780.0,0.098135
785.0,0.097726
790.0,0.097397
795.0,0.097031
800.0,0.09687
805.0,0.096097
810.0,0.096021
815.0,0.09595
820.0,0.095489
825.0,0.094545
830.0,0.094168
835.0,0.093821
840.0,0.093598
845.0,0.092647
850.0,0.092792
855.0,0.092592
860.0,0.092283
865.0,0.091888
870.0,0.091647
875.0,0.090958
880.0,0.090698
885.0,0.090454
890.0,0.090227
895.0,0.090372
900.0,0.090369
905.0,0.09045
910.0,0.089429
915.0,0.089909
920.0,0.089947
925.0,0.08909
930.0,0.089607
935.0,0.089055
940.0,0.089206
945.0,0.089052
950.0,0.088866
955.0,0.089121
960.0,0.088868
965.0,0.088882
970.0,0.088854
975.0,0.088772
980.0,0.08862
985.0,0.088792
990.0,0.089016
995.0,0.088639
1000.0,0.088397
1005.0,0.088571
1010.0,0.088414
1015.0,0.088302
1020.0,0.088184
1025.0,0.087983
1030.0,0.087806
1035.0,0.088008
1040.0,0.087796
1045.0,0.088102
1050.0,0.088061
1055.0,0.08785
1060.0,0.087901
1065.0,0.088142
1070.0,0.088171
1075.0,0.087833
1080.0,0.087728
1085.0,0.087796
1090.0,0.087695
1095.0,0.087833
1100.0,0.087923
1105.0,0.088047
1110.0,0.08816
1115.0,0.087661
1120.0,0.088075
1125.0,0.088193
1130.0,0.088019
1135.0,0.088
1140.0,0.088068
1145.0,0.088037
1150.0,0.08825
1155.0,0.088056
1160.0,0.087945
1165.0,0.088087
1170.0,0.087829
1175.0,0.088056
1180.0,0.087897
1185.0,0.087853
1190.0,0.087913
1195.0,0.087904
1200.0,0.087986
1205.0,0.087924
1210.0,0.087807
1215.0,0.088162
1220.0,0.087488
1225.0,0.08768
1230.0,0.087697
1235.0,0.087336
1240.0,0.087264
1245.0,0.08744
1250.0,0.08772
1255.0,0.087435
1260.0,0.087374
1265.0,0.087339
1270.0,0.087033
1275.0,0.087089
1280.0,0.086586
1285.0,0.086933
1290.0,0.086516
1295.0,0.086597
1300.0,0.086781
1305.0,0.086625
1310.0,0.086678
1315.0,0.08628
1320.0,0.086485
1325.0,0.086437
1330.0,0.086191
1335.0,0.085948
1340.0,0.085971
1345.0,0.085881
1350.0,0.085841
1355.0,0.085552
1360.0,0.085321
1365.0,0.085511
1370.0,0.085517
1375.0,0.085502
1380.0,0.085698
1385.0,0.084974
1390.0,0.085552
1395.0,0.085776
1400.0,0.08576
1405.0,0.0855
1410.0,0.085782
1415.0,0.08543
1420.0,0.084934
1425.0,0.085136
1430.0,0.085106
1435.0,0.085251
1440.0,0.085024
1445.0,0.085321
1450.0,0.085035
1455.0,0.084499
1460.0,0.084701
1465.0,0.084694
1470.0,0.084874
1475.0,0.084866
1480.0,0.084921
1485.0,0.084662
1490.0,0.084577
1495.0,0.084606
1500.0,0.084735
1505.0,0.084871
1510.0,0.084594
1515.0,0.084461
1520.0,0.084404
1525.0,0.08465
1530.0,0.084782
1535.0,0.084593
1540.0,0.084707
1545.0,0.084159
1550.0,0.08442
1555.0,0.083933
1560.0,0.084263
1565.0,0.084155
1570.0,0.08421
1575.0,0.084195
1580.0,0.084228
1585.0,0.08425
1590.0,0.084147
1595.0,0.084279
1600.0,0.08392
1605.0,0.084071
1610.0,0.084111
1615.0,0.084258
1620.0,0.084438
1625.0,0.083884
1630.0,0.083959
1635.0,0.083879
1640.0,0.084105
1645.0,0.083856
1650.0,0.08402
1655.0,0.083716
1660.0,0.084076
1665.0,0.083804
1670.0,0.084119
1675.0,0.083811
1680.0,0.084132
1685.0,0.083896
1690.0,0.084084
1695.0,0.084146
1700.0,0.083953
1705.0,0.083864
1710.0,0.08388
1715.0,0.083814
1720.0,0.083784
1725.0,0.083799
1730.0,0.083786
1735.0,0.084055
1740.0,0.08383
1745.0,0.083757
1750.0,0.083797
1755.0,0.083696
1760.0,0.083543
1765.0,0.083885
1770.0,0.083747
1775.0,0.083797
1780.0,0.083934
1785.0,0.083816
1790.0,0.083953
1795.0,0.083692
1800.0,0.083827
1805.0,0.083871
1810.0,0.083948
1815.0,0.084071
1820.0,0.083991
1825.0,0.08405
1830.0,0.084344
1835.0,0.084037
1840.0,0.083992
1845.0,0.084079
1850.0,0.084377
1855.0,0.083876
1860.0,0.083744
1865.0,0.084179
1870.0,0.08394
1875.0,0.084071
1880.0,0.083481
1885.0,0.083957
1890.0,0.083889
1895.0,0.083918
1900.0,0.083818
1905.0,0.083802
1910.0,0.083613
1915.0,0.083666
1920.0,0.083477
1925.0,0.083415
1930.0,0.083668
1935.0,0.083607
1940.0,0.083431
1945.0,0.083586
1950.0,0.083585
1955.0,0.083452
1960.0,0.083505
1965.0,0.083475
1970.0,0.083368
1975.0,0.083538
1980.0,0.083532
1985.0,0.083518
1990.0,0.083352
1995.0,0.083664
2000.0,0.083602
2005.0,0.083487
2010.0,0.08362
2015.0,0.083753
2020.0,0.083858
2025.0,0.083879
2030.0,0.083447
2035.0,0.08351
2040.0,0.083399
2045.0,0.083544
2050.0,0.083429
2055.0,0.083569
2060.0,0.083495
2065.0,0.083742
2070.0,0.0837
2075.0,0.083616
2080.0,0.083784
2085.0,0.083795
2090.0,0.083896
2095.0,0.083612
2100.0,0.08384
2105.0,0.083742
2110.0,0.08379
2115.0,0.083833
2120.0,0.083978
2125.0,0.083861
2130.0,0.083704
2135.0,0.083698
2140.0,0.0837
2145.0,0.083712
2150.0,0.083608
2155.0,0.083298
2160.0,0.083452
2165.0,0.083567
2170.0,0.083486
2175.0,0.083197
2180.0,0.083575
2185.0,0.08322
2190.0,0.083146
2195.0,0.083317
2200.0,0.083098
2205.0,0.08326
2210.0,0.083143
2215.0,0.083219
2220.0,0.083059
2225.0,0.083011
2230.0,0.083345
2235.0,0.083168
2240.0,0.08317
2245.0,0.083087
2250.0,0.083438
2255.0,0.083236
2260.0,0.083227
2265.0,0.083134
2270.0,0.083288
2275.0,0.083599
2280.0,0.083469
2285.0,0.083479
2290.0,0.0832
2295.0,0.082996
2300.0,0.083519
2305.0,0.083437
2310.0,0.083474
2315.0,0.083481
2320.0,0.083238
2325.0,0.083278
2330.0,0.083056
2335.0,0.082943
2340.0,0.083089
2345.0,0.082983
2350.0,0.082948
2355.0,0.082998
2360.0,0.083027
2365.0,0.082696
2370.0,0.082432
2375.0,0.082428
2380.0,0.082482
2385.0,0.082575
2390.0,0.082606
2395.0,0.082232
2400.0,0.082576
2405.0,0.082512
2410.0,0.082688
2415.0,0.082496
2420.0,0.082408
2425.0,0.082527
2430.0,0.082379
2435.0,0.082589
2440.0,0.082307
2445.0,0.08231
2450.0,0.082069
2455.0,0.08238
2460.0,0.082278
2465.0,0.082223
2470.0,0.082523
2475.0,0.082348
2480.0,0.082583
2485.0,0.082409
2490.0,0.082623
2495.0,0.082715
2500.0,0.082241
2502.0,0.082274
2503.2,0.082353
2504.41,0.082344
2505.62,0.082161
2506.83,0.081931
2508.05,0.081964
2509.26,0.082072
2510.48,0.082208
2511.69,0.082222
2512.91,0.082068
2514.13,0.082251
2515.35,0.082311
2516.57,0.082159
2517.79,0.082004
2519.02,0.081935
2520.24,0.08197
2521.47,0.081944
2522.69,0.082003
2523.92,0.08204
2525.15,0.081909
2526.38,0.081789
2527.61,0.081672
2528.85,0.081604
2530.08,0.081529
2531.32,0.081476
2532.55,0.081771
2533.79,0.081977
2535.03,0.081765
2536.27,0.081807
2537.51,0.081724
2538.75,0.081588
2540.0,0.081507
2541.24,0.08146
2542.49,0.081215
2543.74,0.081203
2544.99,0.081384
2546.24,0.081555
2547.49,0.081719
2548.74,0.081764
2549.99,0.08165
2551.25,0.081497
2552.5,0.081391
2553.76,0.081373
2555.02,0.081456
2556.28,0.08153
2557.54,0.081309
2558.8,0.081169
2560.07,0.08111
2561.33,0.081043
2562.6,0.081111
2563.86,0.081066
2565.13,0.081005
2566.4,0.080955
2567.67,0.080839
2568.95,0.080894
2570.22,0.080877
2571.5,0.08092
2572.77,0.080886
2574.05,0.080773
2575.33,0.080845
2576.61,0.080911
2577.89,0.080894
2579.17,0.081115
2580.46,0.081155
2581.74,0.081074
2583.03,0.081028
2584.31,0.081001
2585.6,0.080844
2586.89,0.080763
2588.19,0.080969
2589.48,0.080743
2590.77,0.080467
2592.07,0.080591
2593.36,0.080622
2594.66,0.080386
2595.96,0.080436
2597.26,0.080614
2598.56,0.080549
2599.87,0.080421
2601.17,0.0804
2602.48,0.080357
2603.78,0.080191
2605.09,0.080165
2606.4,0.080338
2607.71,0.080394
2609.03,0.080623
2610.34,0.080714
2611.66,0.080564
2612.97,0.080564
2614.29,0.080463
2615.61,0.080242
2616.93,0.080071
2618.25,0.079978
2619.57,0.080112
2620.9,0.079917
2622.22,0.079861
2623.55,0.080093
2624.88,0.080141
2626.21,0.080194
2627.54,0.080251
2628.87,0.080052
2630.21,0.079739
2631.54,0.079773
2632.88,0.079944
2634.21,0.080012
2635.55,0.079992
2636.89,0.079893
2638.24,0.079842
2639.58,0.07991
2640.92,0.07992
2642.27,0.079915
2643.62,0.079822
2644.97,0.079787
2646.32,0.079656
2647.67,0.079439
2649.02,0.079295
2650.38,0.079267
2651.73,0.079345
2653.09,0.079238
2654.45,0.079134
2655.81,0.079195
2657.17,0.079206
2658.53,0.079204
2659.89,0.078999
2661.26,0.079101
2662.63,0.079171
2664.0,0.079058
2665.36,0.078801
2666.74,0.078651
2668.11,0.078631
2669.48,0.078533
2670.86,0.078383
2672.23,0.078665
2673.61,0.078907
2674.99,0.078683
2676.37,0.078563
2677.76,0.078282
2679.14,0.078055
2680.52,0.078077
2681.91,0.078228
2683.3,0.078096
2684.69,0.077921
2686.08,0.077838
2687.47,0.07769
2688.87,0.077543
2690.26,0.077375
2691.66,0.077163
2693.06,0.077101
2694.46,0.076996
2695.86,0.076956
2697.26,0.076982
2698.66,0.076885
2700.07,0.076683
2701.48,0.076541
2702.89,0.076612
2704.3,0.076542
2705.71,0.076369
2707.12,0.076213
2708.53,0.07608
2709.95,0.076004
2711.37,0.075821
2712.79,0.075888
2714.21,0.075815
2715.63,0.07554
2717.05,0.075508
2718.48,0.075386
2719.9,0.075153
2721.33,0.074879
2722.76,0.074935
2724.19,0.074489
2725.62,0.074072
2727.06,0.074084
2728.49,0.073893
2729.93,0.073612
2731.37,0.073281
2732.81,0.073046
2734.25,0.073011
2735.69,0.073016
2737.14,0.07289
2738.58,0.072486
2740.03,0.071963
2741.48,0.071849
2742.93,0.071701
2744.38,0.071534
2745.83,0.071506
2747.29,0.071261
2748.75,0.07098
2750.2,0.070742
2751.66,0.070528
2753.13,0.07041
2754.59,0.070198
2756.05,0.070058
2757.52,0.070247
2758.99,0.070168
2760.46,0.069834
2761.93,0.069677
2763.4,0.069665
2764.87,0.069593
2766.35,0.069422
2767.82,0.069233
2769.3,0.06902
2770.78,0.068859
2772.26,0.068708
2773.75,0.068746
2775.23,0.068721
2776.72,0.068728
2778.21,0.068346
2779.7,0.067932
2781.19,0.06792
2782.68,0.067958
2784.18,0.067931
2785.67,0.06774
2787.17,0.067512
2788.67,0.067382
2790.17,0.067277
2791.67,0.06724
2793.18,0.066979
2794.68,0.066659
2796.19,0.066578
2797.7,0.066491
2799.21,0.066507
2800.72,0.066463
2802.24,0.066283
2803.75,0.066242
2805.27,0.066211
2806.79,0.066091
2808.31,0.065877
2809.83,0.065742
2811.35,0.065565
2812.88,0.065445
2814.41,0.06552
2815.93,0.065496
2817.46,0.065439
2819.0,0.065301
2820.53,0.065164
2822.07,0.064961
2823.6,0.064751
2825.14,0.064519
2826.68,0.064419
2828.22,0.064579
2829.77,0.064606
2831.31,0.064524
2832.86,0.064373
2834.41,0.064271
2835.96,0.064182
2837.51,0.064069
2839.07,0.064041
2840.62,0.063945
2842.18,0.063652
2843.74,0.063325
2845.3,0.06324
2846.86,0.063195
2848.43,0.06313
2849.99,0.063055
2851.56,0.063036
2853.13,0.062887
2854.7,0.062626
2856.27,0.062486
2857.85,0.062504
2859.42,0.06254
2861.0,0.062375
2862.58,0.062121
2864.16,0.062197
2865.75,0.062198
2867.33,0.062024
2868.92,0.061887
2870.51,0.061798
2872.1,0.06163
2873.69,0.061487
2875.28,0.061381
2876.88,0.061295
2878.48,0.061426
2880.07,0.061363
2881.68,0.061201
2883.28,0.06093
2884.88,0.060832
2886.49,0.060852
2888.1,0.060849
2889.71,0.060868
2891.32,0.060817
2892.93,0.060691
2894.55,0.060648
2896.16,0.060572
2897.78,0.060401
2899.4,0.060106
2901.03,0.060004
2902.65,0.060006
2904.28,0.059935
2905.91,0.05989
2907.54,0.059955
2909.17,0.05986
2910.8,0.059733
2912.44,0.059669
2914.07,0.059655
2915.71,0.05957
2917.35,0.059385
2918.99,0.059416
2920.64,0.059437
2922.29,0.059239
2923.93,0.059025
2925.58,0.058853
2927.24,0.058812
2928.89,0.058809
2930.55,0.058717
2932.2,0.058646
2933.86,0.058521
2935.52,0.058318
2937.19,0.058381
2938.85,0.058368
2940.52,0.058143
2942.19,0.057977
2943.86,0.057967
2945.53,0.057985
2947.21,0.057924
2948.88,0.057722
2950.56,0.057574
2952.24,0.057494
2953.92,0.05736
2955.61,0.057257
2957.29,0.057235
2958.98,0.057247
2960.67,0.057114
2962.36,0.057003
2964.06,0.05698
2965.75,0.057009
2967.45,0.056815
2969.15,0.056532
2970.85,0.056418
2972.55,0.056451
2974.26,0.056474
2975.97,0.056409
2977.68,0.056429
2979.39,0.056288
2981.1,0.056182
2982.82,0.05616
2984.53,0.056023
2986.25,0.055911
2987.97,0.055953
2989.7,0.055902
2991.42,0.055691
2993.15,0.055607
2994.88,0.055573
2996.61,0.055517
2998.34,0.05553
3000.08,0.055438
3001.82,0.055271
3003.55,0.055126
3005.3,0.055084
3007.04,0.05518
3008.78,0.055176
3010.53,0.055054
3012.28,0.054931
3014.03,0.054907
3015.79,0.054853
3017.54,0.054721
3019.3,0.054572
3021.06,0.054566
3022.82,0.054652
3024.58,0.054621
3026.35,0.054515
3028.12,0.054426
3029.89,0.054472
3031.66,0.054436
3033.43,0.054296
3035.21,0.054275
3036.99,0.054234
3038.77,0.05409
3040.55,0.054082
3042.33,0.054073
3044.12,0.0539
3045.91,0.053766
3047.7,0.053783
3049.49,0.053814
3051.29,0.053745
3053.08,0.053661
3054.88,0.053595
3056.68,0.053531
3058.49,0.053406
3060.29,0.053375
3062.1,0.05334
3063.91,0.053144
3065.72,0.053095
3067.54,0.053172
3069.35,0.053213
3071.17,0.053168
3072.99,0.053108
3074.81,0.053055
3076.64,0.05297
3078.47,0.052846
3080.29,0.05288
3082.13,0.052923
3083.96,0.052918
3085.79,0.052822
3087.63,0.052651
3089.47,0.052569
3091.31,0.052544
3093.16,0.052552
3095.01,0.052561
3096.85,0.052491
3098.71,0.052401
3100.56,0.052408
3102.41,0.052462
3104.27,0.052404
3106.13,0.052425
3107.99,0.052472
3109.86,0.052418
3111.73,0.052364
3113.59,0.052354
3115.47,0.052257
3117.34,0.052267
3119.21,0.052275
3121.09,0.052278
3122.97,0.052373
3124.86,0.05235
3126.74,0.052248
3128.63,0.052206
3130.52,0.052206
3132.41,0.05223
3134.3,0.052228
3136.2,0.052307
3138.1,0.052425
3140.0,0.052379
3141.9,0.052289
3143.81,0.052276
3145.71,0.052349
3147.62,0.052424
3149.54,0.05237
3151.45,0.052351
3153.37,0.052495
3155.29,0.052619
3157.21,0.052548
3159.13,0.052461
3161.06,0.052491
3162.99,0.052612
3164.92,0.052731
3166.85,0.052904
3168.79,0.052959
3170.72,0.052896
3172.67,0.052836
3174.61,0.052864
3176.55,0.053002
3178.5,0.053128
3180.45,0.053185
3182.4,0.053187
3184.36,0.053339
3186.32,0.053403
3188.27,0.053429
3190.24,0.05357
3192.2,0.053624
3194.17,0.05355
3196.14,0.053631
3198.11,0.05371
3200.08,0.053803
3202.06,0.053911
3204.04,0.053986
3206.02,0.05404
3208.0,0.054112
3209.99,0.054152
3211.98,0.054273
3213.97,0.054467
3215.96,0.054596
3217.96,0.054663
3219.96,0.054772
3221.96,0.054847
3223.96,0.054917
3225.97,0.054998
3227.98,0.055128
3229.99,0.055252
3232.0,0.055326
3234.02,0.055415
3236.04,0.055522
3238.06,0.055613
3240.08,0.055704
3242.11,0.055911
3244.14,0.055985
3246.17,0.05599
3248.2,0.05613
3250.24,0.0562
3252.28,0.056265
3254.32,0.056449
3256.37,0.056528
3258.41,0.056585
3260.46,0.056717
3262.51,0.05683
3264.57,0.056943
3266.63,0.057028
3268.69,0.057119
3270.75,0.057165
3272.81,0.057217
3274.88,0.0574
3276.95,0.05748
3279.02,0.05753
3281.1,0.057589
3283.18,0.057645
3285.26,0.057707
3287.34,0.057855
3289.43,0.057929
3291.51,0.057944
3293.61,0.058039
3295.7,0.058132
3297.8,0.058159
3299.9,0.058137
3302.0,0.058174
3304.1,0.058239
3306.21,0.05824
3308.32,0.058278
3310.43,0.058308
3312.55,0.058332
3314.66,0.058401
3316.79,0.058434
3318.91,0.058501
3321.03,0.058501
3323.16,0.05852
3325.29,0.058566
3327.43,0.058625
3329.57,0.058706
3331.71,0.058839
3333.85,0.058961
3335.99,0.058982
3338.14,0.0589
3340.29,0.058905
3342.45,0.058913
3344.6,0.058837
3346.76,0.058836
3348.92,0.058811
3351.09,0.058739
3353.26,0.058762
3355.43,0.058757
3357.6,0.058733
3359.78,0.058901
3361.96,0.058993
3364.14,0.059036
3366.32,0.05919
3368.51,0.059327
3370.7,0.059302
3372.89,0.059293
3375.09,0.059524
3377.29,0.05969
3379.49,0.059636
3381.69,0.059637
3383.9,0.059711
3386.11,0.059763
3388.32,0.059807
3390.54,0.059836
3392.76,0.059838
3394.98,0.059862
3397.21,0.059878
3399.43,0.059957
3401.66,0.060043
3403.9,0.060056
3406.13,0.060093
3408.37,0.060187
3410.61,0.060249
3412.86,0.060269
3415.11,0.060352
3417.36,0.060465
3419.61,0.060477
3421.87,0.060486
3424.13,0.060556
3426.39,0.060528
3428.66,0.060505
3430.93,0.060563
3433.2,0.060642
3435.48,0.060664
3437.76,0.06065
3440.04,0.06073
3442.32,0.060815
3444.61,0.060836
3446.9,0.06079
3449.19,0.060721
3451.49,0.060864
3453.79,0.060945
3456.09,0.060932
3458.4,0.060927
3460.7,0.060901
3463.02,0.0609
3465.33,0.060826
3467.65,0.060667
3469.97,0.060645
3472.29,0.060632
3474.62,0.060586
3476.95,0.060581
3479.29,0.060653
3481.62,0.060642
3483.96,0.060641
3486.3,0.060749
3488.65,0.060833
3491.0,0.060911
3493.35,0.061104
3495.71,0.061243
3498.07,0.061371
3500.43,0.061535
3502.79,0.061569
3505.16,0.061632
3507.53,0.061845
3509.91,0.062006
3512.29,0.062096
3514.67,0.062157
3517.05,0.062234
3519.44,0.062354
3521.83,0.062504
3524.23,0.062662
3526.62,0.062833
3529.02,0.062949
3531.43,0.063083
3533.83,0.063289
3536.24,0.063418
3538.66,0.063432
3541.08,0.063509
3543.5,0.063665
3545.92,0.063805
3548.35,0.063868
3550.78,0.063936
3553.21,0.063984
3555.65,0.064002
3558.09,0.064069
3560.53,0.06423
3562.98,0.064217
3565.43,0.064206
3567.88,0.064348
3570.34,0.064378
3572.8,0.064389
3575.27,0.064496
3577.73,0.064541
3580.2,0.064598
3582.68,0.064686
3585.16,0.064705
3587.64,0.064799
3590.12,0.064867
3592.61,0.064941
3595.1,0.065029
3597.6,0.065049
3600.09,0.065074
3602.6,0.065168
3605.1,0.065259
3607.61,0.065313
3610.12,0.06528
3612.64,0.065369
3615.16,0.065469
3617.68,0.065532
3620.21,0.065607
3622.74,0.065683
3625.27,0.065745
3627.81,0.065746
3630.35,0.065771
3632.89,0.065808
3635.44,0.065856
3637.99,0.065944
3640.54,0.066001
3643.1,0.066017
3645.66,0.06607
3648.23,0.066129
3650.8,0.066189
3653.37,0.066226
3655.95,0.066228
3658.53,0.066311
3661.11,0.06642
3663.7,0.066424
3666.29,0.066496
3668.89,0.066567
3671.48,0.066602
3674.09,0.066702
3676.69,0.066744
3679.3,0.066748
3681.91,0.066781
3684.53,0.06682
3687.15,0.066933
3689.78,0.067004
3692.4,0.067034
3695.04,0.06708
3697.67,0.067124
3700.31,0.06722
3702.95,0.067261
3705.6,0.067248
3708.25,0.067293
3710.91,0.067379
3713.56,0.067435
3716.23,0.067463
3718.89,0.067459
3721.56,0.06755
3724.23,0.067658
3726.91,0.067673
3729.59,0.067665
3732.28,0.067676
3734.97,0.067671
3737.66,0.0678
3740.36,0.067905
3743.06,0.067918
3745.76,0.067936
3748.47,0.067907
3751.18,0.067971
3753.9,0.068055
3756.62,0.068074
3759.34,0.068064
3762.07,0.068099
3764.8,0.068131
3767.54,0.068128
3770.28,0.068152
3773.02,0.068157
3775.77,0.068162
3778.52,0.068076
3781.28,0.068033
3784.04,0.068114
3786.8,0.068133
3789.57,0.068155
3792.34,0.068191
3795.12,0.068139
3797.9,0.068117
3800.69,0.068123
3803.47,0.068098
3806.27,0.068019
3809.06,0.067934
3811.86,0.067953
3814.67,0.067982
3817.48,0.067912
3820.29,0.067913
3823.11,0.068013
3825.93,0.067982
3828.76,0.067963
3831.59,0.068028
3834.42,0.068004
3837.26,0.067991
3840.1,0.068006
3842.95,0.067979
3845.8,0.06796
3848.65,0.067958
3851.51,0.068019
3854.38,0.068057
3857.24,0.06807
3860.12,0.068094
3862.99,0.068096
3865.87,0.068097
3868.76,0.068104
3871.65,0.068084
3874.54,0.068066
3877.44,0.068032
3880.34,0.068043
3883.25,0.068074
3886.16,0.068049
3889.07,0.068035
3891.99,0.068024
3894.92,0.068077
3897.85,0.068056
3900.78,0.068054
3903.72,0.068016
3906.66,0.068008
3909.6,0.068
3912.55,0.067954
3915.51,0.067957
3918.47,0.067883
3921.43,0.067835
3924.4,0.067811
3927.38,0.067755
3930.35,0.067706
3933.33,0.067692
3936.32,0.067599
3939.31,0.067552
3942.31,0.067494
3945.31,0.067363
3948.31,0.067213
3951.32,0.067081
3954.34,0.067015
3957.35,0.066918
3960.38,0.066745
3963.41,0.066579
3966.44,0.066508
3969.48,0.066475
3972.52,0.066434
3975.56,0.066463
3978.61,0.066573
3981.67,0.066701
3984.73,0.066826
3987.8,0.066931
3990.87,0.067132
3993.94,0.067373
3997.02,0.06758
4000.1,0.067843
4003.19,0.068144
4006.29,0.068439
4009.39,0.068706
4012.49,0.068961
4015.6,0.069281
4018.71,0.069579
4021.83,0.069808
4024.95,0.07006
4028.08,0.070238
4031.21,0.070368
4034.35,0.070564
4037.49,0.070716
4040.64,0.070851
4043.79,0.070979
4046.94,0.071123
4050.11,0.071283
4053.27,0.071414
4056.44,0.071492
4059.62,0.071581
4062.8,0.071673
4065.99,0.071746
4069.18,0.071848
4072.38,0.071965
4075.58,0.071972
4078.78,0.071969
4082.0,0.072028
4085.21,0.072024
4088.43,0.072087
4091.66,0.072246
4094.89,0.072299
4098.13,0.072268
4101.37,0.072278
4104.62,0.072348
4107.87,0.072422
4111.13,0.072445
4114.39,0.072501
4117.66,0.072571
4120.93,0.07256
4124.21,0.072578
4127.5,0.072614
4130.79,0.07267
4134.08,0.072716
4137.38,0.072724
4140.68,0.072759
4143.99,0.072824
4147.31,0.072865
4150.63,0.072886
4153.95,0.07294
4157.29,0.072993
4160.62,0.073027
4163.96,0.073025
4167.31,0.073054
4170.66,0.073098
4174.02,0.073147
4177.39,0.073189
4180.75,0.073226
4184.13,0.073262
4187.51,0.0733
4190.89,0.0733
4194.28,0.073296
4197.68,0.073299
4201.08,0.073352
4204.49,0.0734
4207.9,0.073378
4211.32,0.07337
4214.74,0.073408
4218.17,0.073458
4221.61,0.073471
4225.05,0.073448
4228.5,0.073468
4231.95,0.073518
4235.4,0.073497
4238.87,0.073547
4242.34,0.073628
4245.81,0.073584
4249.29,0.073588
4252.78,0.073696
4256.27,0.073798
4259.77,0.073831
4263.27,0.073794
4266.78,0.073767
4270.29,0.073809
4273.81,0.073799
4277.34,0.073811
4280.87,0.073846
4284.41,0.073836
4287.95,0.073842
4291.5,0.0739
4295.06,0.073945
4298.62,0.073977
4302.19,0.073975
4305.76,0.073956
4309.34,0.073985
4312.92,0.074053
4316.52,0.074067
4320.11,0.074053
4323.72,0.074065
4327.32,0.074124
4330.94,0.074142
4334.56,0.074153
4338.19,0.074129
4341.82,0.074169
4345.46,0.074245
4349.11,0.074306
4352.76,0.074318
4356.42,0.074273
4360.08,0.07428
4363.75,0.074328
4367.43,0.074357
4371.11,0.074358
4374.8,0.074363
4378.49,0.074408
4382.19,0.074431
4385.9,0.074398
4389.61,0.074458
4393.33,0.07447
4397.06,0.074427
4400.79,0.074484
4404.53,0.074557
4408.28,0.074547
4412.03,0.074537
4415.79,0.074574
4419.55,0.074568
4423.32,0.074581
4427.1,0.074647
4430.88,0.074666
4434.68,0.07471
4438.47,0.074764
4442.28,0.074725
4446.08,0.074677
4449.9,0.074692
4453.72,0.074701
4457.55,0.074755
4461.39,0.074808
4465.23,0.074813
4469.08,0.074783
4472.94,0.074757
4476.8,0.074748
4480.67,0.07477
4484.55,0.074814
4488.43,0.074899
4492.32,0.074929
4496.21,0.074906
4500.12,0.074928
4504.03,0.074938
4507.94,0.074969
4511.87,0.074959
4515.8,0.074922
4519.73,0.074944
4523.68,0.074981
4527.63,0.075002
4531.59,0.075033
4535.55,0.075035
4539.52,0.075031
4543.5,0.075034
4547.49,0.075023
4551.48,0.075027
4555.48,0.07505
4559.49,0.075069
4563.5,0.075067
4567.52,0.075104
4571.55,0.075133
4575.58,0.075114
4579.63,0.075134
4583.67,0.075143
4587.73,0.07514
4591.79,0.075162
4595.86,0.075165
4599.94,0.075149
4604.03,0.075113
4608.12,0.075087
4612.22,0.075076
4616.33,0.075156
4620.44,0.075214
4624.56,0.075173
4628.69,0.075161
4632.83,0.075193
4636.97,0.075167
4641.12,0.075107
4645.28,0.075129
4649.45,0.07512
4653.62,0.075111
4657.8,0.075132
4661.99,0.075097
4666.19,0.075091
4670.39,0.075106
4674.6,0.07515
4678.82,0.075196
4683.05,0.075266
4687.28,0.075265
4691.52,0.075236
4695.77,0.075245
4700.03,0.075278
4704.3,0.075332
4708.57,0.075366
4712.85,0.075385
4717.14,0.075413
4721.43,0.075447
4725.74,0.075489
4730.05,0.075485
4734.37,0.075506
4738.7,0.075535
4743.03,0.075496
4747.38,0.075521
4751.73,0.075605
4756.09,0.075658
4760.45,0.075638
4764.83,0.075593
4769.21,0.075591
4773.6,0.075608
4778.0,0.075643
4782.41,0.075661
4786.83,0.07566
4791.25,0.075644
4795.68,0.075625
4800.13,0.075626
4804.57,0.075621
4809.03,0.075646
4813.5,0.075664
4817.97,0.075651
4822.45,0.07563
4826.94,0.07566
4831.44,0.075699
4835.95,0.075688
4840.46,0.07563
4844.99,0.07557
4849.52,0.075608
4854.06,0.07561
4858.61,0.075571
4863.17,0.075627
4867.73,0.075648
4872.31,0.075589
4876.89,0.075556
4881.48,0.075572
4886.08,0.075646
4890.69,0.075701
4895.31,0.075652
4899.94,0.075576
4904.57,0.075547
4909.22,0.075557
4913.87,0.075564
4918.53,0.075587
4923.21,0.075593
4927.88,0.075586
4932.57,0.07558
4937.27,0.075568
4941.98,0.075557
4946.69,0.075537
4951.42,0.075551
4956.15,0.075592
4960.9,0.075621
4965.65,0.075597
4970.41,0.075527
4975.18,0.075479
4979.96,0.07547
4984.75,0.075477
4989.54,0.075484
4994.35,0.075462
4999.17,0.075457
5003.99,0.075459
5008.83,0.075405
5013.67,0.075403
5018.52,0.075437
5023.39,0.075421
5028.26,0.075402
5033.14,0.075402
5038.03,0.075355
5042.93,0.0753
5047.84,0.075317
5052.76,0.075339
5057.69,0.075298
5062.63,0.075273
5067.58,0.075266
5072.54,0.07526
5077.51,0.075253
5082.49,0.075213
5087.47,0.075231
5092.47,0.075239
5097.48,0.075192
5102.5,0.075128
5107.52,0.075125
5112.56,0.075152
5117.61,0.075176
5122.66,0.075153
5127.73,0.075121
5132.81,0.075107
5137.89,0.075092
5142.99,0.075054
5148.1,0.075038
5153.22,0.075043
5158.34,0.075055
5163.48,0.07505
5168.63,0.074998
5173.79,0.074951
5178.96,0.074924
5184.13,0.074934
5189.32,0.074934
5194.52,0.074908
5199.73,0.074863
5204.96,0.07486
5210.19,0.074856
5215.43,0.074839
5220.68,0.074819
5225.94,0.074766
5231.22,0.074752
5236.5,0.074755
5241.79,0.074721
5247.1,0.074681
5252.42,0.074673
5257.74,0.07465
5263.08,0.074613
5268.43,0.074588
5273.79,0.074561
5279.16,0.074555
5284.54,0.07455
5289.93,0.074505
5295.34,0.074506
5300.75,0.074496
5306.18,0.074447
5311.61,0.074437
5317.06,0.074417
5322.52,0.074369
5327.99,0.074342
5333.47,0.074292
5338.96,0.074247
5344.47,0.074212
5349.98,0.0742
5355.51,0.074204
5361.05,0.074176
5366.6,0.074117
5372.16,0.074073
5377.73,0.074006
5383.32,0.073949
5388.91,0.073952
5394.52,0.073906
5400.14,0.073828
5405.77,0.073754
5411.41,0.073699
5417.07,0.073648
5422.74,0.073555
5428.41,0.073476
5434.1,0.073364
5439.81,0.073273
5445.52,0.073153
5451.25,0.073005
5456.98,0.072853
5462.73,0.072651
5468.5,0.072455
5474.27,0.07233
5480.06,0.072117
5485.86,0.071869
5491.67,0.071633
5497.49,0.071398
5503.33,0.071205
5509.18,0.07105
5515.04,0.070909
5520.91,0.07071
5526.8,0.070452
5532.69,0.070194
5538.61,0.069889
5544.53,0.069534
5550.47,0.069132
5556.41,0.068623
5562.38,0.068181
5568.35,0.06797
5574.34,0.067918
5580.34,0.067997
5586.35,0.068277
5592.38,0.068675
5598.42,0.069126
5604.47,0.069545
5610.54,0.069893
5616.61,0.070177
5622.71,0.070345
5628.81,0.070418
5634.93,0.070504
5641.06,0.070548
5647.21,0.0706
5653.36,0.070646
5659.54,0.070662
5665.72,0.070706
5671.92,0.070711
5678.13,0.07065
5684.36,0.070631
5690.6,0.070657
5696.85,0.070694
5703.12,0.070687
5709.4,0.070698
5715.69,0.070746
5722.0,0.070762
5728.33,0.070794
5734.66,0.070809
5741.01,0.070839
5747.38,0.070898
5753.76,0.070904
5760.15,0.070891
5766.56,0.070913
5772.98,0.07097
5779.41,0.071006
5785.86,0.071036
5792.33,0.071095
5798.81,0.071089
5805.3,0.071092
5811.81,0.071164
5818.33,0.071191
5824.87,0.071214
5831.42,0.071239
5837.99,0.07122
5844.57,0.071224
5851.17,0.07121
5857.78,0.071211
5864.41,0.071204
5871.05,0.071199
5877.7,0.071159
5884.38,0.071132
5891.06,0.071132
5897.76,0.071086
5904.48,0.07109
5911.21,0.071036
5917.96,0.070974
5924.73,0.070968
5931.5,0.070934
5938.3,0.070891
5945.11,0.070846
5951.93,0.070773
5958.78,0.070736
5965.63,0.070635
5972.51,0.070516
5979.39,0.070454
5986.3,0.070389
5993.22,0.070323
6000.16,0.070302
6007.11,0.070224
6014.08,0.070122
6021.06,0.070071
6028.06,0.070028
6035.08,0.069985
6042.12,0.069873
6049.17,0.069726
6056.23,0.06966
6063.32,0.069632
6070.42,0.069578
6077.53,0.06953
6084.67,0.069514
6091.82,0.06948
6098.98,0.069446
6106.17,0.06942
6113.37,0.06944
6120.58,0.069469
6127.82,0.069478
6135.07,0.069512
6142.34,0.069537
6149.63,0.069625
6156.93,0.069681
6164.25,0.069734
6171.59,0.06984
6178.95,0.069923
6186.32,0.07
6193.71,0.07007
6201.12,0.070143
6208.54,0.070236
6215.99,0.070346
6223.45,0.07044
6230.93,0.070554
6238.43,0.070668
6245.95,0.070781
6253.48,0.070872
6261.03,0.071003
6268.6,0.071146
6276.19,0.071301
6283.8,0.071523
6291.43,0.071711
6299.07,0.071841
6306.73,0.072056
6314.42,0.072367
6322.12,0.072687
6329.84,0.072996
6337.57,0.073358
6345.33,0.073726
6353.11,0.074165
6360.9,0.074546
6368.72,0.074876
6376.55,0.075244
6384.4,0.075573
6392.27,0.075849
6400.17,0.076116
6408.08,0.076318
6416.01,0.076515
6423.96,0.076761
6431.93,0.076926
6439.92,0.077066
6447.93,0.077186
6455.96,0.077247
6464.01,0.07727
6472.08,0.07719
6480.17,0.077021
6488.28,0.076851
6496.41,0.076703
6504.56,0.076501
6512.73,0.076192
6520.92,0.075873
6529.14,0.075558
6537.37,0.07523
6545.63,0.074866
6553.9,0.074481
6562.2,0.074088
6570.51,0.073676
6578.85,0.073271
6587.21,0.07283
6595.59,0.072417
6603.99,0.071946
6612.42,0.071418
6620.86,0.070955
6629.33,0.070516
6637.82,0.070066
6646.33,0.069568
6654.86,0.06908
6663.41,0.068657
6671.99,0.068237
6680.59,0.067854
6689.21,0.067475
6697.85,0.067067
6706.51,0.066704
6715.2,0.066355
6723.91,0.066006
6732.64,0.065725
6741.4,0.065464
6750.18,0.065191
6758.98,0.064921
6767.8,0.064676
6776.65,0.064459
6785.52,0.064206
6794.41,0.063983
6803.33,0.063819
6812.27,0.063646
6821.23,0.063444
6830.22,0.063215
6839.23,0.063008
6848.26,0.062879
6857.32,0.062779
6866.4,0.062689
6875.51,0.062608
6884.64,0.062528
6893.8,0.062502
6902.98,0.06249
6912.18,0.062465
6921.41,0.06244
6930.66,0.062457
6939.94,0.062518
6949.24,0.062601
6958.57,0.062674
6967.92,0.062819
6977.3,0.063025
6986.7,0.063232
6996.13,0.063399
7005.59,0.063567
7015.07,0.063783
7024.57,0.064024
7034.1,0.064269
7043.66,0.064499
7053.25,0.064745
7062.85,0.064939
7072.49,0.065081
7082.15,0.065223
7091.84,0.065319
7101.55,0.065395
7111.3,0.065439
7121.06,0.06547
7130.86,0.065461
7140.68,0.065427
7150.53,0.06549
7160.41,0.065652
7170.31,0.065829
7180.24,0.066054
7190.2,0.066314
7200.19,0.066597
7210.2,0.066922
7220.24,0.067255
7230.31,0.067537
7240.41,0.067872
7250.54,0.068226
7260.69,0.068563
7270.88,0.068883
7281.09,0.069274
7291.33,0.06968
7301.6,0.070058
7311.9,0.07044
7322.22,0.070804
7332.58,0.071157
7342.97,0.071564
7353.38,0.071967
7363.83,0.072319
7374.3,0.072617
7384.81,0.072882
7395.34,0.073067
7405.91,0.073242
7416.5,0.073466
7427.13,0.073694
7437.78,0.073883
7448.47,0.074047
7459.19,0.074206
7469.94,0.074357
7480.71,0.074485
7491.52,0.074648
7502.37,0.074794
7513.24,0.074891
7524.14,0.07496
7535.08,0.075055
7546.05,0.075142
7557.05,0.075228
7568.08,0.075274
7579.15,0.075323
7590.24,0.075418
7601.37,0.075527
7612.53,0.075635
7623.73,0.075726
7634.96,0.075806
7646.22,0.075867
7657.51,0.075921
7668.84,0.075996
7680.2,0.07608
7691.59,0.076189
7703.02,0.076257
7714.49,0.076334
7725.98,0.076442
7737.52,0.076533
7749.08,0.076589
7760.68,0.076602
7772.32,0.076562
7783.99,0.076543
7795.69,0.076521
7807.43,0.076542
7819.21,0.076587
7831.02,0.076595
7842.87,0.076577
7854.75,0.076601
7866.67,0.076597
7878.62,0.076576
7890.62,0.076584
7902.64,0.076547
7914.71,0.07648
7926.81,0.07641
7938.95,0.076351
7951.13,0.076265
7963.34,0.076169
7975.59,0.076095
7987.88,0.076006
8000.21,0.075903
8012.57,0.07583
8024.98,0.075787
8037.42,0.075686
8049.9,0.075533
8062.42,0.07538
8074.98,0.075261
8087.57,0.075156
8100.21,0.075034
8112.89,0.074938
8125.6,0.074842
8138.36,0.074722
8151.16,0.074648
8163.99,0.074563
8176.87,0.074459
8189.79,0.07438
8202.75,0.074342
8215.75,0.074268
8228.79,0.074187
8241.87,0.074079
8254.99,0.073957
8268.16,0.073805
8281.37,0.073617
8294.62,0.073457
8307.91,0.07329
8321.24,0.07309
8334.62,0.072936
8348.04,0.072788
8361.51,0.07255
8375.02,0.072318
8388.57,0.07206
8402.16,0.071743
8415.8,0.071485
8429.49,0.07124
8443.22,0.070983
8456.99,0.070744
8470.81,0.07049
8484.67,0.070223
8498.58,0.069997
8512.54,0.069753
8526.54,0.069541
8540.58,0.069358
8554.68,0.069131
8568.82,0.068886
8583.0,0.068666
8597.24,0.06846
8611.52,0.068254
8625.85,0.068065
8640.23,0.067916
8654.65,0.0677
8669.12,0.067526
8683.64,0.067424
8698.21,0.067313
8712.83,0.067166
8727.5,0.067026
8742.22,0.066884
8756.99,0.066748
8771.8,0.066591
8786.67,0.066411
8801.59,0.066294
8816.56,0.066161
8831.58,0.066008
8846.65,0.065852
8861.77,0.065735
8876.94,0.065622
8892.17,0.065393
8907.45,0.065148
8922.78,0.064952
8938.16,0.064785
8953.6,0.064644
8969.09,0.064469
8984.64,0.064242
9000.23,0.064042
9015.89,0.063829
9031.59,0.063613
9047.36,0.063437
9063.17,0.063228
9079.05,0.062983
9094.97,0.062648
9110.96,0.062307
9127.0,0.062044
9143.1,0.061868
9159.25,0.061674
9175.46,0.061411
9191.73,0.061148
9208.06,0.060839
9224.44,0.060614
9240.88,0.060469
9257.38,0.06032
9273.94,0.060227
9290.56,0.06014
9307.24,0.059967
9323.98,0.059734
9340.78,0.059599
9357.64,0.059403
9374.57,0.059163
9391.55,0.058957
9408.59,0.058709
9425.7,0.058532
9442.87,0.05838
9460.1,0.05822
9477.4,0.058018
9494.75,0.057814
9512.17,0.057649
9529.66,0.057526
9547.21,0.057394
9564.83,0.057171
9582.5,0.056986
9600.25,0.056849
9618.06,0.056753
9635.94,0.056673
9653.88,0.056529
9671.89,0.056436
9689.97,0.056385
9708.12,0.056261
9726.33,0.056106
9744.62,0.056023
9762.97,0.05593
9781.39,0.05585
9799.88,0.055783
9818.44,0.055712
9837.07,0.055653
9855.77,0.055585
9874.54,0.055521
9893.39,0.055464
9912.3,0.055393
9931.29,0.05536
9950.36,0.055339
9969.49,0.055297
9988.7,0.055305
10007.98,0.055339
10027.34,0.055322
10046.77,0.055341
10066.28,0.055307
10085.87,0.055235
10105.53,0.055203
10125.26,0.055266
10145.08,0.055296
10164.97,0.055259
10184.94,0.055224
10204.99,0.055189
10225.12,0.055195
10245.33,0.055151
10265.61,0.055066
10285.98,0.055003
10306.43,0.05497
10326.96,0.054972
10347.57,0.054955
10368.27,0.054889
10389.05,0.054857
10409.91,0.054926
10430.86,0.054979
10451.88,0.055059
10473.0,0.055069
10494.2,0.05499
10515.49,0.054903
10536.86,0.054818
10558.32,0.054759
10579.87,0.054737
10601.5,0.054661
10623.23,0.054591
10645.04,0.054521
10666.94,0.054449
10688.94,0.054336
10711.02,0.054201
10733.2,0.054094
10755.47,0.053994
10777.83,0.053827
10800.28,0.053738
10822.83,0.053719
10845.47,0.053622
10868.21,0.053528
10891.04,0.053415
10913.97,0.053211
10936.99,0.053049
10960.12,0.05295
10983.34,0.052807
11006.66,0.052651
11030.07,0.052579
11053.59,0.05256
11077.21,0.052512
11100.93,0.052512
11124.75,0.052568
11148.68,0.052696
11172.71,0.052953
11196.84,0.053219
11221.07,0.053419
11245.41,0.053588
11269.86,0.053683
11294.41,0.053383
11319.07,0.052512
11343.84,0.05153
11368.72,0.05099
11393.7,0.050543
11418.8,0.049982
11444.01,0.049639
11469.33,0.049759
11494.76,0.050226
11520.3,0.051017
11545.96,0.052005
11571.73,0.052786
11597.62,0.05332
11623.62,0.053691
11649.74,0.053925
11675.98,0.054147
11702.34,0.05421
11728.81,0.05397
11755.41,0.053621
11782.13,0.05336
11808.96,0.053028
11835.92,0.05318
11863.01,0.05374
11890.22,0.053999
11917.55,0.054038
11945.01,0.054113
11972.6,0.054075
12000.31,0.053965
12028.16,0.053901
12056.13,0.053839
12084.23,0.053766
12112.46,0.053662
12140.83,0.053534
12169.33,0.053377
12197.96,0.053282
12226.73,0.05321
12255.64,0.053105
12284.68,0.052889
12313.86,0.052648
12343.18,0.052515
12372.64,0.052414
12402.24,0.052202
12431.98,0.051997
12461.86,0.051801
12491.89,0.051704
12522.07,0.051616
12552.38,0.051425
12582.85,0.051327
12613.47,0.051266
12644.23,0.051235
12675.15,0.051178
12706.21,0.051095
12737.43,0.051087
12768.81,0.051042
12800.33,0.051038
12832.02,0.051092
12863.86,0.051113
12895.86,0.051151
12928.02,0.051174
12960.34,0.051204
12992.82,0.051291
13025.46,0.051316
13058.27,0.051343
13091.25,0.051339
13124.39,0.05131
13157.7,0.051324
13191.18,0.051433
13224.83,0.051474
13258.66,0.051435
13292.65,0.051424
13326.83,0.051445
13361.17,0.05142
13395.7,0.051322
13430.4,0.051277
13465.29,0.051216
13500.35,0.051048
13535.6,0.050868
13571.03,0.050573
13606.65,0.050278
13642.46,0.050048
13678.46,0.049719
13714.64,0.049388
13751.02,0.049237
13787.59,0.049063
13824.36,0.048914
13861.32,0.048869
13898.49,0.048678
13935.85,0.048142
13973.41,0.047563
14011.17,0.047058
14049.15,0.046917
14087.32,0.047325
14125.71,0.048124
14164.3,0.048739
14203.11,0.049128
14242.13,0.04952
14281.36,0.049657
14320.81,0.049518
14360.49,0.049437
14400.38,0.049499
14440.49,0.04939
14480.82,0.0492
14521.39,0.049165
14562.18,0.049085
14603.2,0.048999
14644.45,0.048979
14685.93,0.048912
14727.66,0.04869
14769.62,0.048635
14811.81,0.048778
14854.25,0.048824
14896.94,0.04878
14939.87,0.048881
14983.05,0.049032
15026.48,0.049153
15070.16,0.049264
15114.1,0.049432
15158.29,0.049566
15202.74,0.049762
15247.46,0.050037
15292.43,0.050278
15337.68,0.050718
15383.19,0.051193
15428.97,0.051649
15475.03,0.052247
15521.36,0.052953
15567.97,0.053531
15614.87,0.054074
15662.04,0.054699
15709.5,0.055232
15757.25,0.055741
15805.29,0.056301
15853.62,0.056855
15902.26,0.057337
15951.19,0.057867
16000.42,0.058308
16049.95,0.058759
16099.8,0.059288
16149.95,0.059815
16200.42,0.060289
16251.21,0.060769
16302.31,0.061285
16353.74,0.061798
16405.49,0.062241
16457.57,0.062691
16509.98,0.063188
16562.73,0.063774
16615.82,0.064284
16669.24,0.064793
16723.02,0.065261
16777.14,0.065704
16831.61,0.06618
16886.43,0.066767
16941.62,0.067507
16997.16,0.068156
17053.08,0.068669
17109.36,0.069398
17166.01,0.070189
17223.04,0.070923
17280.45,0.071684
17338.24,0.072416
17396.43,0.073304
17455.0,0.07411
17513.97,0.074866
17573.34,0.075821
17633.11,0.076806
17693.29,0.077536
17753.89,0.078179
17814.9,0.078943
17876.33,0.079657
17938.18,0.080167
18000.47,0.0804
18063.19,0.080403
18126.35,0.080231
18189.95,0.079893
18254.0,0.079547
18318.5,0.079167
18383.46,0.078676
18448.88,0.078216
18514.77,0.077636
18581.13,0.077112
18647.97,0.076745
18715.29,0.076053
18783.1,0.075411
18851.4,0.075068
18920.2,0.074798
18989.51,0.074297
19059.32,0.073744
19129.65,0.073266
19200.5,0.072663
19271.88,0.072094
19343.79,0.071469
19416.24,0.070805
19489.23,0.070354
19562.77,0.069791
19636.88,0.069158
19711.54,0.068514
19786.78,0.067966
19862.59,0.067611
19938.98,0.06729
20015.96,0.067177
20093.55,0.067235
20171.73,0.067007
20250.53,0.066959
20329.94,0.067089
20409.98,0.06713
20490.65,0.067437
20571.96,0.068069
20653.92,0.068573
20736.54,0.068681
20819.82,0.069089
20903.77,0.069524
20988.4,0.070011
21073.72,0.070598
21159.73,0.070936
21246.46,0.071431
21333.89,0.072275
21422.04,0.072881
21510.93,0.073147
21600.56,0.073276
21690.94,0.073499
21782.08,0.073959
21873.99,0.074337
21966.67,0.074628
22060.15,0.074988
22154.42,0.075336
22249.51,0.075644
22345.41,0.075626
22442.14,0.075747
22539.72,0.076155
22638.14,0.076411
22737.43,0.07673
22837.6,0.077044
22938.65,0.077093
23040.6,0.07668
23143.46,0.076376
23247.24,0.075865
23351.96,0.075329
23457.63,0.074837
23564.25,0.074539
23671.85,0.074299
23780.44,0.073685
23890.02,0.073456
24000.63,0.072558
24112.26,0.071885
24224.93,0.071956
24338.66,0.071937
24453.47,0.071758
24569.36,0.071486
24686.36,0.071545
24804.47,0.07159
24923.73,0.071459
25044.13,0.072623
25165.71,0.073492
25288.46,0.073147
25412.43,0.073255
25537.61,0.074522
25664.04,0.074236
25791.72,0.075311
25920.68,0.077573
