Database of Origin,University of Winnipeg Spectrophotometer Facility
Sample Description,9.2. MAGNETITE: Merged RELAB & Nicole / Merged at 2.5 um / different viewing geometry
Date Added,2016-07-15 22:03:00.121663

Data ID,RPN_MAG_06          
Sample ID,MAG106
Mineral Name,Magnetite
Grain Size,<45
Viewing Geometry,30 / 0 | 30
Resolution,1.2-129
Material Class,Magnetite

Wavelength
305.0,0.030955
310.0,0.031816
315.0,0.031259
320.0,0.032256
325.0,0.032307
330.0,0.033267
335.0,0.033307
340.0,0.03368
345.0,0.033658
350.0,0.033794
355.0,0.033822
360.0,0.033862
365.0,0.033945
370.0,0.034241
375.0,0.034135
380.0,0.034101
385.0,0.034117
390.0,0.034097
395.0,0.034229
400.0,0.03423
405.0,0.034433
410.0,0.034283
415.0,0.034377
420.0,0.034446
425.0,0.034684
430.0,0.034634
435.0,0.034715
440.0,0.034608
445.0,0.034488
450.0,0.034431
455.0,0.034572
460.0,0.0346
465.0,0.034655
470.0,0.03464
475.0,0.034653
480.0,0.03466
485.0,0.034767
490.0,0.034736
495.0,0.034925
500.0,0.034928
505.0,0.035041
510.0,0.035003
515.0,0.03535
520.0,0.035188
525.0,0.035386
530.0,0.035507
535.0,0.035772
540.0,0.035835
545.0,0.036158
550.0,0.036236
555.0,0.036409
560.0,0.036676
565.0,0.036767
570.0,0.036842
575.0,0.037059
580.0,0.037232
585.0,0.037358
590.0,0.037463
595.0,0.037576
600.0,0.037695
605.0,0.037814
610.0,0.038042
615.0,0.038319
620.0,0.038515
625.0,0.038716
630.0,0.038975
635.0,0.039089
640.0,0.039177
645.0,0.039336
650.0,0.039382
655.0,0.039444
660.0,0.039554
665.0,0.039566
670.0,0.039571
675.0,0.039608
680.0,0.039794
685.0,0.039661
690.0,0.039674
695.0,0.039708
700.0,0.040139
705.0,0.039724
710.0,0.039605
715.0,0.039529
720.0,0.039819
725.0,0.039906
730.0,0.039951
735.0,0.039924
740.0,0.039958
745.0,0.040052
750.0,0.039912
755.0,0.040049
760.0,0.040011
765.0,0.04012
770.0,0.039886
775.0,0.039926
780.0,0.040292
785.0,0.040128
790.0,0.04018
795.0,0.04043
800.0,0.040351
805.0,0.040552
810.0,0.040724
815.0,0.040746
820.0,0.040966
825.0,0.040945
830.0,0.040941
835.0,0.04116
840.0,0.041346
845.0,0.041405
850.0,0.041431
855.0,0.041428
860.0,0.041108
865.0,0.041533
870.0,0.041421
875.0,0.041394
880.0,0.041267
885.0,0.041429
890.0,0.041191
895.0,0.041014
900.0,0.04094
905.0,0.041063
910.0,0.040912
915.0,0.041009
920.0,0.040845
925.0,0.040739
930.0,0.04071
935.0,0.040655
940.0,0.040489
945.0,0.040308
950.0,0.040207
955.0,0.040069
960.0,0.040236
965.0,0.040173
970.0,0.040068
975.0,0.039913
980.0,0.03997
985.0,0.039883
990.0,0.039675
995.0,0.039347
1000.0,0.039352
1005.0,0.039035
1010.0,0.038828
1015.0,0.038839
1020.0,0.038641
1025.0,0.038427
1030.0,0.038383
1035.0,0.038269
1040.0,0.038097
1045.0,0.037967
1050.0,0.037917
1055.0,0.037724
1060.0,0.037561
1065.0,0.037279
1070.0,0.037223
1075.0,0.037011
1080.0,0.036864
1085.0,0.036721
1090.0,0.036573
1095.0,0.036508
1100.0,0.036497
1105.0,0.036357
1110.0,0.036276
1115.0,0.036111
1120.0,0.036146
1125.0,0.035938
1130.0,0.035887
1135.0,0.035922
1140.0,0.035679
1145.0,0.035916
1150.0,0.035673
1155.0,0.035721
1160.0,0.035492
1165.0,0.035554
1170.0,0.035471
1175.0,0.035483
1180.0,0.035428
1185.0,0.035358
1190.0,0.035355
1195.0,0.035392
1200.0,0.035502
1205.0,0.035473
1210.0,0.035483
1215.0,0.035572
1220.0,0.035388
1225.0,0.035332
1230.0,0.035407
1235.0,0.03541
1240.0,0.035284
1245.0,0.035394
1250.0,0.035462
1255.0,0.035481
1260.0,0.035324
1265.0,0.035579
1270.0,0.03554
1275.0,0.035553
1280.0,0.035436
1285.0,0.035575
1290.0,0.03557
1295.0,0.03559
1300.0,0.03562
1305.0,0.035686
1310.0,0.035718
1315.0,0.035804
1320.0,0.035982
1325.0,0.03597
1330.0,0.036143
1335.0,0.036166
1340.0,0.036245
1345.0,0.036331
1350.0,0.036456
1355.0,0.036636
1360.0,0.036745
1365.0,0.036532
1370.0,0.036863
1375.0,0.036897
1380.0,0.03738
1385.0,0.036935
1390.0,0.037003
1395.0,0.037331
1400.0,0.037567
1405.0,0.037649
1410.0,0.037536
1415.0,0.03761
1420.0,0.037709
1425.0,0.0378
1430.0,0.037911
1435.0,0.03806
1440.0,0.038245
1445.0,0.038256
1450.0,0.038146
1455.0,0.038244
1460.0,0.038427
1465.0,0.038429
1470.0,0.038583
1475.0,0.038556
1480.0,0.038835
1485.0,0.03881
1490.0,0.038942
1495.0,0.03894
1500.0,0.039194
1505.0,0.039299
1510.0,0.039394
1515.0,0.039393
1520.0,0.03944
1525.0,0.039606
1530.0,0.039818
1535.0,0.03979
1540.0,0.039956
1545.0,0.040134
1550.0,0.040042
1555.0,0.040238
1560.0,0.040427
1565.0,0.040462
1570.0,0.040537
1575.0,0.040531
1580.0,0.040633
1585.0,0.040846
1590.0,0.041
1595.0,0.041089
1600.0,0.041227
1605.0,0.04135
1610.0,0.041375
1615.0,0.041619
1620.0,0.041645
1625.0,0.041719
1630.0,0.041914
1635.0,0.042056
1640.0,0.041925
1645.0,0.042183
1650.0,0.042356
1655.0,0.042209
1660.0,0.042288
1665.0,0.042554
1670.0,0.04258
1675.0,0.042663
1680.0,0.042776
1685.0,0.043013
1690.0,0.043013
1695.0,0.043057
1700.0,0.043315
1705.0,0.043386
1710.0,0.043446
1715.0,0.043565
1720.0,0.043756
1725.0,0.043698
1730.0,0.043872
1735.0,0.043876
1740.0,0.044097
1745.0,0.044241
1750.0,0.044286
1755.0,0.044266
1760.0,0.044302
1765.0,0.04443
1770.0,0.044546
1775.0,0.044622
1780.0,0.044657
1785.0,0.04499
1790.0,0.045092
1795.0,0.045219
1800.0,0.045376
1805.0,0.045492
1810.0,0.0458
1815.0,0.045889
1820.0,0.045951
1825.0,0.045934
1830.0,0.046118
1835.0,0.046133
1840.0,0.045974
1845.0,0.046257
1850.0,0.046194
1855.0,0.046272
1860.0,0.046272
1865.0,0.046562
1870.0,0.046661
1875.0,0.046444
1880.0,0.046527
1885.0,0.04695
1890.0,0.047159
1895.0,0.04709
1900.0,0.047504
1905.0,0.047224
1910.0,0.047314
1915.0,0.047295
1920.0,0.047669
1925.0,0.047331
1930.0,0.047791
1935.0,0.047798
1940.0,0.047794
1945.0,0.047946
1950.0,0.047996
1955.0,0.048202
1960.0,0.048033
1965.0,0.048061
1970.0,0.048374
1975.0,0.048293
1980.0,0.048361
1985.0,0.048374
1990.0,0.048442
1995.0,0.048706
2000.0,0.048761
2005.0,0.048786
2010.0,0.048946
2015.0,0.04898
2020.0,0.049121
2025.0,0.04905
2030.0,0.049076
2035.0,0.04918
2040.0,0.049229
2045.0,0.0494
2050.0,0.049429
2055.0,0.049708
2060.0,0.049605
2065.0,0.04955
2070.0,0.049661
2075.0,0.049805
2080.0,0.049815
2085.0,0.049984
2090.0,0.050102
2095.0,0.050183
2100.0,0.050316
2105.0,0.050202
2110.0,0.050467
2115.0,0.05061
2120.0,0.050636
2125.0,0.050742
2130.0,0.050741
2135.0,0.050847
2140.0,0.050811
2145.0,0.051288
2150.0,0.051066
2155.0,0.051154
2160.0,0.051028
2165.0,0.051439
2170.0,0.051403
2175.0,0.051395
2180.0,0.051799
2185.0,0.05193
2190.0,0.052266
2195.0,0.052325
2200.0,0.052288
2205.0,0.052402
2210.0,0.052552
2215.0,0.052739
2220.0,0.052786
2225.0,0.052822
2230.0,0.053002
2235.0,0.053083
2240.0,0.053153
2245.0,0.053383
2250.0,0.05343
2255.0,0.053421
2260.0,0.053749
2265.0,0.053679
2270.0,0.053957
2275.0,0.054113
2280.0,0.05424
2285.0,0.054297
2290.0,0.054329
2295.0,0.05478
2300.0,0.054952
2305.0,0.055155
2310.0,0.055235
2315.0,0.055341
2320.0,0.055233
2325.0,0.055526
2330.0,0.055603
2335.0,0.055586
2340.0,0.055743
2345.0,0.055594
2350.0,0.055681
2355.0,0.055554
2360.0,0.0553
2365.0,0.055343
2370.0,0.054889
2375.0,0.055021
2380.0,0.05498
2385.0,0.055294
2390.0,0.055255
2395.0,0.055408
2400.0,0.055431
2405.0,0.055244
2410.0,0.055323
2415.0,0.055242
2420.0,0.055408
2425.0,0.055209
2430.0,0.055495
2435.0,0.055516
2440.0,0.055297
2445.0,0.055319
2450.0,0.055539
2455.0,0.055305
2460.0,0.055385
2465.0,0.05533
2470.0,0.055539
2475.0,0.055542
2480.0,0.055563
2485.0,0.055654
2490.0,0.055681
2495.0,0.055863
2500.0,0.055855
2502.0,0.055745
2503.2,0.055586
2504.41,0.0557
2505.62,0.055941
2506.83,0.055927
2508.05,0.055841
2509.26,0.055697
2510.48,0.055788
2511.69,0.055952
2512.91,0.056016
2514.13,0.056038
2515.35,0.055859
2516.57,0.05584
2517.79,0.055912
2519.02,0.056067
2520.24,0.056002
2521.47,0.055991
2522.69,0.056059
2523.92,0.056075
2525.15,0.056021
2526.38,0.055931
2527.61,0.055887
2528.85,0.05594
2530.08,0.056067
2531.32,0.05607
2532.55,0.056226
2533.79,0.056187
2535.03,0.05608
2536.27,0.056011
2537.51,0.056154
2538.75,0.056289
2540.0,0.056369
2541.24,0.056363
2542.49,0.056088
2543.74,0.055961
2544.99,0.056156
2546.24,0.056337
2547.49,0.056296
2548.74,0.056416
2549.99,0.056497
2551.25,0.056498
2552.5,0.056318
2553.76,0.056242
2555.02,0.056445
2556.28,0.05648
2557.54,0.056595
2558.8,0.056555
2560.07,0.056347
2561.33,0.056307
2562.6,0.056507
2563.86,0.05643
2565.13,0.056492
2566.4,0.056616
2567.67,0.056583
2568.95,0.05646
2570.22,0.056461
2571.5,0.056725
2572.77,0.056761
2574.05,0.056671
2575.33,0.056806
2576.61,0.056517
2577.89,0.056458
2579.17,0.056872
2580.46,0.056877
2581.74,0.056792
2583.03,0.056921
2584.31,0.05683
2585.6,0.05699
2586.89,0.056871
2588.19,0.056898
2589.48,0.057106
2590.77,0.057136
2592.07,0.05709
2593.36,0.056838
2594.66,0.056747
2595.96,0.057239
2597.26,0.057523
2598.56,0.057291
2599.87,0.057074
2601.17,0.05718
2602.48,0.057328
2603.78,0.057377
2605.09,0.057255
2606.4,0.057291
2607.71,0.057365
2609.03,0.057341
2610.34,0.057488
2611.66,0.057596
2612.97,0.057388
2614.29,0.057268
2615.61,0.05751
2616.93,0.05738
2618.25,0.057423
2619.57,0.057469
2620.9,0.05731
2622.22,0.057439
2623.55,0.057558
2624.88,0.057552
2626.21,0.057597
2627.54,0.057701
2628.87,0.057793
2630.21,0.05771
2631.54,0.057797
2632.88,0.057975
2634.21,0.057839
2635.55,0.057978
2636.89,0.058085
2638.24,0.057845
2639.58,0.057913
2640.92,0.057996
2642.27,0.057908
2643.62,0.058046
2644.97,0.058032
2646.32,0.057871
2647.67,0.057826
2649.02,0.057929
2650.38,0.05814
2651.73,0.0582
2653.09,0.058132
2654.45,0.058156
2655.81,0.058174
2657.17,0.058157
2658.53,0.058063
2659.89,0.058159
2661.26,0.058189
2662.63,0.058001
2664.0,0.057937
2665.36,0.0581
2666.74,0.05824
2668.11,0.05827
2669.48,0.058294
2670.86,0.058096
2672.23,0.058291
2673.61,0.058141
2674.99,0.057992
2676.37,0.058028
2677.76,0.058103
2679.14,0.0581
2680.52,0.058146
2681.91,0.058327
2683.3,0.058263
2684.69,0.058312
2686.08,0.058338
2687.47,0.058359
2688.87,0.058343
2690.26,0.058331
2691.66,0.058319
2693.06,0.058191
2694.46,0.058142
2695.86,0.058152
2697.26,0.058075
2698.66,0.05812
2700.07,0.058293
2701.48,0.058236
2702.89,0.058106
2704.3,0.05825
2705.71,0.058302
2707.12,0.058308
2708.53,0.058275
2709.95,0.058098
2711.37,0.058127
2712.79,0.058354
2714.21,0.058396
2715.63,0.058314
2717.05,0.058385
2718.48,0.058412
2719.9,0.058276
2721.33,0.058146
2722.76,0.058336
2724.19,0.05816
2725.62,0.05832
2727.06,0.058526
2728.49,0.058568
2729.93,0.058625
2731.37,0.05851
2732.81,0.05837
2734.25,0.058289
2735.69,0.058422
2737.14,0.058665
2738.58,0.058526
2740.03,0.058423
2741.48,0.058573
2742.93,0.058684
2744.38,0.05866
2745.83,0.058526
2747.29,0.058595
2748.75,0.058765
2750.2,0.058709
2751.66,0.058666
2753.13,0.058649
2754.59,0.058572
2756.05,0.058722
2757.52,0.058971
2758.99,0.058904
2760.46,0.058756
2761.93,0.058698
2763.4,0.058692
2764.87,0.058689
2766.35,0.058658
2767.82,0.058777
2769.3,0.058786
2770.78,0.058733
2772.26,0.058742
2773.75,0.058784
2775.23,0.058732
2776.72,0.058662
2778.21,0.058661
2779.7,0.05871
2781.19,0.058781
2782.68,0.05888
2784.18,0.058869
2785.67,0.058827
2787.17,0.058749
2788.67,0.058673
2790.17,0.058618
2791.67,0.058503
2793.18,0.058523
2794.68,0.058761
2796.19,0.058852
2797.7,0.058863
2799.21,0.058733
2800.72,0.058499
2802.24,0.058428
2803.75,0.058606
2805.27,0.058838
2806.79,0.058812
2808.31,0.058698
2809.83,0.058725
2811.35,0.058757
2812.88,0.058661
2814.41,0.058696
2815.93,0.058847
2817.46,0.058849
2819.0,0.058811
2820.53,0.058768
2822.07,0.05869
2823.6,0.058778
2825.14,0.058872
2826.68,0.058862
2828.22,0.058762
2829.77,0.058749
2831.31,0.058708
2832.86,0.058632
2834.41,0.058565
2835.96,0.058648
2837.51,0.058836
2839.07,0.058897
2840.62,0.059013
2842.18,0.058913
2843.74,0.058865
2845.3,0.05897
2846.86,0.058963
2848.43,0.058994
2849.99,0.059102
2851.56,0.059116
2853.13,0.05901
2854.7,0.058988
2856.27,0.059066
2857.85,0.05914
2859.42,0.059197
2861.0,0.059146
2862.58,0.059077
2864.16,0.059102
2865.75,0.059102
2867.33,0.059161
2868.92,0.059213
2870.51,0.059223
2872.1,0.05926
2873.69,0.059242
2875.28,0.059313
2876.88,0.059381
2878.48,0.059308
2880.07,0.059247
2881.68,0.059223
2883.28,0.059192
2884.88,0.059287
2886.49,0.059305
2888.1,0.059268
2889.71,0.059398
2891.32,0.059541
2892.93,0.059485
2894.55,0.059504
2896.16,0.05956
2897.78,0.059571
2899.4,0.059595
2901.03,0.059601
2902.65,0.059592
2904.28,0.059565
2905.91,0.059516
2907.54,0.059495
2909.17,0.059607
2910.8,0.05962
2912.44,0.059581
2914.07,0.059623
2915.71,0.059683
2917.35,0.059684
2918.99,0.059614
2920.64,0.059556
2922.29,0.059657
2923.93,0.059833
2925.58,0.059897
2927.24,0.059915
2928.89,0.059991
2930.55,0.05999
2932.2,0.059909
2933.86,0.059923
2935.52,0.059927
2937.19,0.059956
2938.85,0.059908
2940.52,0.059852
2942.19,0.059814
2943.86,0.059897
2945.53,0.059943
2947.21,0.060044
2948.88,0.060053
2950.56,0.059963
2952.24,0.059901
2953.92,0.059875
2955.61,0.060056
2957.29,0.060162
2958.98,0.060129
2960.67,0.060126
2962.36,0.060149
2964.06,0.060111
2965.75,0.060102
2967.45,0.06011
2969.15,0.060127
2970.85,0.060106
2972.55,0.060183
2974.26,0.060295
2975.97,0.060194
2977.68,0.060143
2979.39,0.060224
2981.1,0.060311
2982.82,0.0603
2984.53,0.060138
2986.25,0.060011
2987.97,0.060169
2989.7,0.060313
2991.42,0.060356
2993.15,0.060228
2994.88,0.060173
2996.61,0.060281
2998.34,0.060338
3000.08,0.060417
3001.82,0.060359
3003.55,0.060298
3005.3,0.060311
3007.04,0.060278
3008.78,0.060372
3010.53,0.060379
3012.28,0.060423
3014.03,0.060461
3015.79,0.060392
3017.54,0.060455
3019.3,0.060512
3021.06,0.060513
3022.82,0.060552
3024.58,0.060563
3026.35,0.06049
3028.12,0.060479
3029.89,0.060607
3031.66,0.060687
3033.43,0.060689
3035.21,0.060732
3036.99,0.06081
3038.77,0.060804
3040.55,0.060808
3042.33,0.060857
3044.12,0.060914
3045.91,0.060927
3047.7,0.06088
3049.49,0.060866
3051.29,0.060916
3053.08,0.060821
3054.88,0.060772
3056.68,0.060778
3058.49,0.060824
3060.29,0.060979
3062.1,0.061086
3063.91,0.061113
3065.72,0.061056
3067.54,0.061086
3069.35,0.061047
3071.17,0.060926
3072.99,0.060935
3074.81,0.061055
3076.64,0.061124
3078.47,0.061125
3080.29,0.061163
3082.13,0.061195
3083.96,0.061209
3085.79,0.061177
3087.63,0.061152
3089.47,0.061171
3091.31,0.061206
3093.16,0.061143
3095.01,0.061105
3096.85,0.061179
3098.71,0.06122
3100.56,0.061265
3102.41,0.061279
3104.27,0.061279
3106.13,0.061291
3107.99,0.061376
3109.86,0.061415
3111.73,0.061332
3113.59,0.061291
3115.47,0.061348
3117.34,0.061405
3119.21,0.061286
3121.09,0.061239
3122.97,0.061322
3124.86,0.061399
3126.74,0.061492
3128.63,0.061473
3130.52,0.06141
3132.41,0.06138
3134.3,0.061344
3136.2,0.061384
3138.1,0.061415
3140.0,0.061408
3141.9,0.061464
3143.81,0.061572
3145.71,0.061587
3147.62,0.061547
3149.54,0.061502
3151.45,0.061524
3153.37,0.061574
3155.29,0.061561
3157.21,0.06152
3159.13,0.061547
3161.06,0.061609
3162.99,0.061584
3164.92,0.061505
3166.85,0.061506
3168.79,0.061516
3170.72,0.061581
3172.67,0.061586
3174.61,0.06156
3176.55,0.061567
3178.5,0.061635
3180.45,0.061697
3182.4,0.061701
3184.36,0.061648
3186.32,0.061621
3188.27,0.061707
3190.24,0.061684
3192.2,0.061642
3194.17,0.061712
3196.14,0.061743
3198.11,0.061762
3200.08,0.061808
3202.06,0.061854
3204.04,0.061736
3206.02,0.061704
3208.0,0.061621
3209.99,0.061624
3211.98,0.061679
3213.97,0.061722
3215.96,0.061747
3217.96,0.061776
3219.96,0.061765
3221.96,0.061732
3223.96,0.061786
3225.97,0.061885
3227.98,0.061906
3229.99,0.061964
3232.0,0.06199
3234.02,0.061931
3236.04,0.061876
3238.06,0.061859
3240.08,0.061823
3242.11,0.061783
3244.14,0.061804
3246.17,0.061869
3248.2,0.061826
3250.24,0.061714
3252.28,0.061772
3254.32,0.061936
3256.37,0.061937
3258.41,0.061882
3260.46,0.061898
3262.51,0.061903
3264.57,0.06191
3266.63,0.061875
3268.69,0.061912
3270.75,0.062005
3272.81,0.061974
3274.88,0.061931
3276.95,0.061894
3279.02,0.061861
3281.1,0.061911
3283.18,0.061986
3285.26,0.062027
3287.34,0.062014
3289.43,0.061909
3291.51,0.061921
3293.61,0.062029
3295.7,0.062018
3297.8,0.061933
3299.9,0.061928
3302.0,0.061983
3304.1,0.062032
3306.21,0.06212
3308.32,0.062135
3310.43,0.062054
3312.55,0.062071
3314.66,0.062065
3316.79,0.062031
3318.91,0.062017
3321.03,0.062025
3323.16,0.062069
3325.29,0.062137
3327.43,0.062159
3329.57,0.062153
3331.71,0.062182
3333.85,0.06219
3335.99,0.06214
3338.14,0.062087
3340.29,0.062036
3342.45,0.061994
3344.6,0.062045
3346.76,0.062179
3348.92,0.062276
3351.09,0.062261
3353.26,0.062235
3355.43,0.062231
3357.6,0.062111
3359.78,0.062065
3361.96,0.06215
3364.14,0.062236
3366.32,0.062172
3368.51,0.062102
3370.7,0.062114
3372.89,0.062144
3375.09,0.062201
3377.29,0.062263
3379.49,0.062221
3381.69,0.06219
3383.9,0.062229
3386.11,0.062337
3388.32,0.062317
3390.54,0.062244
3392.76,0.062254
3394.98,0.062206
3397.21,0.062202
3399.43,0.062278
3401.66,0.062337
3403.9,0.06235
3406.13,0.062325
3408.37,0.06229
3410.61,0.062322
3412.86,0.062345
3415.11,0.062329
3417.36,0.062352
3419.61,0.062372
3421.87,0.062367
3424.13,0.062444
3426.39,0.062517
3428.66,0.062508
3430.93,0.062486
3433.2,0.06241
3435.48,0.062425
3437.76,0.062446
3440.04,0.062384
3442.32,0.062357
3444.61,0.062409
3446.9,0.062457
3449.19,0.06248
3451.49,0.062476
3453.79,0.06239
3456.09,0.062395
3458.4,0.062401
3460.7,0.06238
3463.02,0.062386
3465.33,0.062404
3467.65,0.062374
3469.97,0.06232
3472.29,0.062267
3474.62,0.062259
3476.95,0.06223
3479.29,0.062292
3481.62,0.062355
3483.96,0.062446
3486.3,0.062481
3488.65,0.062464
3491.0,0.062531
3493.35,0.062582
3495.71,0.062538
3498.07,0.06245
3500.43,0.062447
3502.79,0.062537
3505.16,0.062547
3507.53,0.062556
3509.91,0.06252
3512.29,0.06244
3514.67,0.062437
3517.05,0.062469
3519.44,0.062465
3521.83,0.06254
3524.23,0.062602
3526.62,0.062572
3529.02,0.062605
3531.43,0.06261
3533.83,0.062589
3536.24,0.062595
3538.66,0.062637
3541.08,0.062636
3543.5,0.062589
3545.92,0.06256
3548.35,0.062576
3550.78,0.062599
3553.21,0.062551
3555.65,0.062532
3558.09,0.06255
3560.53,0.062538
3562.98,0.062541
3565.43,0.062591
3567.88,0.062621
3570.34,0.06269
3572.8,0.06272
3575.27,0.062656
3577.73,0.062645
3580.2,0.062715
3582.68,0.062778
3585.16,0.062805
3587.64,0.062796
3590.12,0.062681
3592.61,0.062664
3595.1,0.062752
3597.6,0.062764
3600.09,0.0627
3602.6,0.062708
3605.1,0.062725
3607.61,0.062777
3610.12,0.06283
3612.64,0.062819
3615.16,0.062824
3617.68,0.062879
3620.21,0.062858
3622.74,0.062859
3625.27,0.062837
3627.81,0.062853
3630.35,0.06287
3632.89,0.062868
3635.44,0.062923
3637.99,0.062897
3640.54,0.062821
3643.1,0.06291
3645.66,0.063004
3648.23,0.062994
3650.8,0.062942
3653.37,0.062932
3655.95,0.062947
3658.53,0.062973
3661.11,0.063033
3663.7,0.063082
3666.29,0.063107
3668.89,0.063078
3671.48,0.063024
3674.09,0.063042
3676.69,0.063039
3679.3,0.063049
3681.91,0.063105
3684.53,0.063102
3687.15,0.063093
3689.78,0.063099
3692.4,0.06314
3695.04,0.063194
3697.67,0.063188
3700.31,0.063121
3702.95,0.063128
3705.6,0.063152
3708.25,0.06315
3710.91,0.063167
3713.56,0.063241
3716.23,0.063231
3718.89,0.06322
3721.56,0.063231
3724.23,0.063267
3726.91,0.063317
3729.59,0.06334
3732.28,0.063319
3734.97,0.06331
3737.66,0.063306
3740.36,0.063302
3743.06,0.063301
3745.76,0.063332
3748.47,0.063285
3751.18,0.063278
3753.9,0.063345
3756.62,0.063379
3759.34,0.063402
3762.07,0.063454
3764.8,0.063438
3767.54,0.06341
3770.28,0.063436
3773.02,0.063473
3775.77,0.063506
3778.52,0.063544
3781.28,0.063538
3784.04,0.063473
3786.8,0.063448
3789.57,0.063462
3792.34,0.063515
3795.12,0.063569
3797.9,0.063614
3800.69,0.0636
3803.47,0.063563
3806.27,0.063536
3809.06,0.063571
3811.86,0.063597
3814.67,0.063599
3817.48,0.063592
3820.29,0.063588
3823.11,0.063664
3825.93,0.063711
3828.76,0.063674
3831.59,0.063669
3834.42,0.063671
3837.26,0.063704
3840.1,0.063714
3842.95,0.063701
3845.8,0.063735
3848.65,0.063767
3851.51,0.063773
3854.38,0.063784
3857.24,0.063798
3860.12,0.063793
3862.99,0.063766
3865.87,0.063758
3868.76,0.06375
3871.65,0.063775
3874.54,0.063767
3877.44,0.063812
3880.34,0.063853
3883.25,0.063882
3886.16,0.063941
3889.07,0.063938
3891.99,0.063899
3894.92,0.063877
3897.85,0.063936
3900.78,0.063984
3903.72,0.063997
3906.66,0.063995
3909.6,0.063988
3912.55,0.063968
3915.51,0.063988
3918.47,0.064001
3921.43,0.064025
3924.4,0.064068
3927.38,0.064088
3930.35,0.064124
3933.33,0.064118
3936.32,0.064102
3939.31,0.064134
3942.31,0.064115
3945.31,0.064113
3948.31,0.064106
3951.32,0.064169
3954.34,0.064237
3957.35,0.064257
3960.38,0.064244
3963.41,0.064238
3966.44,0.064281
3969.48,0.064324
3972.52,0.064334
3975.56,0.064281
3978.61,0.064261
3981.67,0.064298
3984.73,0.064335
3987.8,0.064404
3990.87,0.064436
3993.94,0.064442
3997.02,0.064398
4000.1,0.0644
4003.19,0.06445
4006.29,0.064449
4009.39,0.064485
4012.49,0.064554
4015.6,0.064563
4018.71,0.064568
4021.83,0.064575
4024.95,0.064563
4028.08,0.064582
4031.21,0.064584
4034.35,0.064563
4037.49,0.064571
4040.64,0.064626
4043.79,0.064676
4046.94,0.064685
4050.11,0.064704
4053.27,0.064705
4056.44,0.064695
4059.62,0.064721
4062.8,0.064753
4065.99,0.064757
4069.18,0.064812
4072.38,0.064842
4075.58,0.064794
4078.78,0.064768
4082.0,0.064807
4085.21,0.064815
4088.43,0.064814
4091.66,0.06488
4094.89,0.064946
4098.13,0.064952
4101.37,0.0649
4104.62,0.064902
4107.87,0.064918
4111.13,0.064894
4114.39,0.064928
4117.66,0.065003
4120.93,0.065034
4124.21,0.065062
4127.5,0.065089
4130.79,0.065104
4134.08,0.065142
4137.38,0.065127
4140.68,0.065095
4143.99,0.065102
4147.31,0.065127
4150.63,0.065139
4153.95,0.065144
4157.29,0.065154
4160.62,0.065148
4163.96,0.065175
4167.31,0.065174
4170.66,0.065227
4174.02,0.065277
4177.39,0.065309
4180.75,0.065321
4184.13,0.065377
4187.51,0.065415
4190.89,0.065413
4194.28,0.065428
4197.68,0.06545
4201.08,0.065466
4204.49,0.065502
4207.9,0.0655
4211.32,0.065534
4214.74,0.06555
4218.17,0.065587
4221.61,0.065665
4225.05,0.065664
4228.5,0.065706
4231.95,0.065767
4235.4,0.065759
4238.87,0.065733
4242.34,0.065701
4245.81,0.065686
4249.29,0.065716
4252.78,0.065719
4256.27,0.065717
4259.77,0.065817
4263.27,0.065899
4266.78,0.065916
4270.29,0.065886
4273.81,0.065873
4277.34,0.06589
4280.87,0.066009
4284.41,0.066062
4287.95,0.066041
4291.5,0.06602
4295.06,0.066069
4298.62,0.066093
4302.19,0.066147
4305.76,0.066142
4309.34,0.066105
4312.92,0.066109
4316.52,0.066153
4320.11,0.066213
4323.72,0.066219
4327.32,0.066244
4330.94,0.066312
4334.56,0.066341
4338.19,0.066338
4341.82,0.066337
4345.46,0.066364
4349.11,0.066414
4352.76,0.066452
4356.42,0.066448
4360.08,0.066454
4363.75,0.066527
4367.43,0.066552
4371.11,0.06659
4374.8,0.066638
4378.49,0.066655
4382.19,0.066637
4385.9,0.066641
4389.61,0.066702
4393.33,0.066748
4397.06,0.066796
4400.79,0.066826
4404.53,0.066804
4408.28,0.066849
4412.03,0.066887
4415.79,0.066831
4419.55,0.066821
4423.32,0.066862
4427.1,0.06693
4430.88,0.067003
4434.68,0.067011
4438.47,0.066977
4442.28,0.06702
4446.08,0.067106
4449.9,0.067144
4453.72,0.067152
4457.55,0.067173
4461.39,0.067187
4465.23,0.067226
4469.08,0.067249
4472.94,0.067237
4476.8,0.067274
4480.67,0.067306
4484.55,0.067324
4488.43,0.06734
4492.32,0.06735
4496.21,0.067366
4500.12,0.067395
4504.03,0.067448
4507.94,0.067478
4511.87,0.067518
4515.8,0.067573
4519.73,0.067598
4523.68,0.067593
4527.63,0.067594
4531.59,0.067632
4535.55,0.067728
4539.52,0.06778
4543.5,0.067761
4547.49,0.067758
4551.48,0.067776
4555.48,0.067794
4559.49,0.067868
4563.5,0.0679
4567.52,0.067887
4571.55,0.067898
4575.58,0.067924
4579.63,0.067941
4583.67,0.067959
4587.73,0.067989
4591.79,0.068011
4595.86,0.068078
4599.94,0.068113
4604.03,0.068171
4608.12,0.068177
4612.22,0.068144
4616.33,0.068158
4620.44,0.06822
4624.56,0.068261
4628.69,0.068267
4632.83,0.068307
4636.97,0.068338
4641.12,0.068351
4645.28,0.068361
4649.45,0.068397
4653.62,0.068434
4657.8,0.068444
4661.99,0.068482
4666.19,0.068543
4670.39,0.068555
4674.6,0.068585
4678.82,0.06861
4683.05,0.068604
4687.28,0.068631
4691.52,0.068674
4695.77,0.068683
4700.03,0.068679
4704.3,0.068711
4708.57,0.068756
4712.85,0.068772
4717.14,0.068801
4721.43,0.068836
4725.74,0.068913
4730.05,0.068972
4734.37,0.068974
4738.7,0.068974
4743.03,0.069011
4747.38,0.069072
4751.73,0.069097
4756.09,0.069132
4760.45,0.069165
4764.83,0.069161
4769.21,0.069224
4773.6,0.0693
4778.0,0.069301
4782.41,0.069318
4786.83,0.069349
4791.25,0.069369
4795.68,0.069371
4800.13,0.069396
4804.57,0.06948
4809.03,0.069513
4813.5,0.069496
4817.97,0.069547
4822.45,0.069609
4826.94,0.069599
4831.44,0.069584
4835.95,0.069619
4840.46,0.069656
4844.99,0.069686
4849.52,0.069746
4854.06,0.069775
4858.61,0.069784
4863.17,0.069833
4867.73,0.069852
4872.31,0.069829
4876.89,0.069842
4881.48,0.069882
4886.08,0.06994
4890.69,0.069982
4895.31,0.070004
4899.94,0.070015
4904.57,0.070039
4909.22,0.070071
4913.87,0.070131
4918.53,0.070147
4923.21,0.070155
4927.88,0.070233
4932.57,0.070282
4937.27,0.070304
4941.98,0.070332
4946.69,0.070374
4951.42,0.070371
4956.15,0.070362
4960.9,0.07039
4965.65,0.070422
4970.41,0.070473
4975.18,0.070504
4979.96,0.070549
4984.75,0.070638
4989.54,0.070666
4994.35,0.070675
4999.17,0.070716
5003.99,0.07077
5008.83,0.070787
5013.67,0.070812
5018.52,0.070837
5023.39,0.070841
5028.26,0.070849
5033.14,0.070884
5038.03,0.070917
5042.93,0.070982
5047.84,0.071068
5052.76,0.071093
5057.69,0.071125
5062.63,0.071175
5067.58,0.071184
5072.54,0.071229
5077.51,0.071284
5082.49,0.071312
5087.47,0.071326
5092.47,0.071308
5097.48,0.071351
5102.5,0.071413
5107.52,0.071486
5112.56,0.07151
5117.61,0.071523
5122.66,0.071538
5127.73,0.071584
5132.81,0.071649
5137.89,0.071687
5142.99,0.071732
5148.1,0.071762
5153.22,0.07176
5158.34,0.071787
5163.48,0.071843
5168.63,0.071838
5173.79,0.071848
5178.96,0.071932
5184.13,0.072022
5189.32,0.072036
5194.52,0.072018
5199.73,0.072011
5204.96,0.072065
5210.19,0.07212
5215.43,0.07216
5220.68,0.072135
5225.94,0.072152
5231.22,0.072196
5236.5,0.072232
5241.79,0.072278
5247.1,0.072294
5252.42,0.072312
5257.74,0.072368
5263.08,0.072414
5268.43,0.07243
5273.79,0.072428
5279.16,0.072439
5284.54,0.072469
5289.93,0.072512
5295.34,0.07258
5300.75,0.072597
5306.18,0.072621
5311.61,0.072666
5317.06,0.072692
5322.52,0.072714
5327.99,0.072755
5333.47,0.072797
5338.96,0.072802
5344.47,0.072822
5349.98,0.0729
5355.51,0.072927
5361.05,0.072903
5366.6,0.072954
5372.16,0.073039
5377.73,0.073065
5383.32,0.073095
5388.91,0.073127
5394.52,0.073125
5400.14,0.073152
5405.77,0.073217
5411.41,0.073289
5417.07,0.073326
5422.74,0.073401
5428.41,0.073388
5434.1,0.073341
5439.81,0.073411
5445.52,0.073481
5451.25,0.073499
5456.98,0.073482
5462.73,0.07353
5468.5,0.073571
5474.27,0.073572
5480.06,0.073611
5485.86,0.073644
5491.67,0.073672
5497.49,0.073718
5503.33,0.073778
5509.18,0.073809
5515.04,0.073814
5520.91,0.073877
5526.8,0.073919
5532.69,0.073961
5538.61,0.074004
5544.53,0.074066
5550.47,0.0741
5556.41,0.074102
5562.38,0.074108
5568.35,0.074166
5574.34,0.074236
5580.34,0.074303
5586.35,0.074261
5592.38,0.074269
5598.42,0.074353
5604.47,0.074414
5610.54,0.07439
5616.61,0.074443
5622.71,0.074498
5628.81,0.07454
5634.93,0.074574
5641.06,0.07462
5647.21,0.074607
5653.36,0.074569
5659.54,0.07464
5665.72,0.074633
5671.92,0.074698
5678.13,0.074755
5684.36,0.07473
5690.6,0.074766
5696.85,0.074845
5703.12,0.074877
5709.4,0.075003
5715.69,0.075038
5722.0,0.075038
5728.33,0.075151
5734.66,0.075261
5741.01,0.075333
5747.38,0.075432
5753.76,0.075518
5760.15,0.075527
5766.56,0.075721
5772.98,0.075677
5779.41,0.075595
5785.86,0.075711
5792.33,0.075754
5798.81,0.075814
5805.3,0.075826
5811.81,0.075804
5818.33,0.075878
5824.87,0.075952
5831.42,0.075831
5837.99,0.07576
5844.57,0.075795
5851.17,0.075866
5857.78,0.075912
5864.41,0.075922
5871.05,0.075859
5877.7,0.075905
5884.38,0.076032
5891.06,0.075786
5897.76,0.075887
5904.48,0.075829
5911.21,0.075735
5917.96,0.075889
5924.73,0.075936
5931.5,0.075979
5938.3,0.076075
5945.11,0.075897
5951.93,0.075837
5958.78,0.075953
5965.63,0.076011
5972.51,0.076096
5979.39,0.076028
5986.3,0.076116
5993.22,0.076166
6000.16,0.076116
6007.11,0.076173
6014.08,0.076314
6021.06,0.07631
6028.06,0.076295
6035.08,0.076337
6042.12,0.076419
6049.17,0.076605
6056.23,0.076453
6063.32,0.076264
6070.42,0.076472
6077.53,0.076531
6084.67,0.076476
6091.82,0.076507
6098.98,0.07662
6106.17,0.076674
6113.37,0.076789
6120.58,0.076706
6127.82,0.076608
6135.07,0.076731
6142.34,0.076795
6149.63,0.07679
6156.93,0.076832
6164.25,0.076885
6171.59,0.076869
6178.95,0.076932
6186.32,0.077056
6193.71,0.076971
6201.12,0.076962
6208.54,0.077089
6215.99,0.0771
6223.45,0.077106
6230.93,0.077125
6238.43,0.077195
6245.95,0.077229
6253.48,0.077249
6261.03,0.077288
6268.6,0.077342
6276.19,0.077366
6283.8,0.077358
6291.43,0.077379
6299.07,0.077416
6306.73,0.077428
6314.42,0.077471
6322.12,0.07753
6329.84,0.077582
6337.57,0.077624
6345.33,0.07772
6353.11,0.077631
6360.9,0.077607
6368.72,0.077776
6376.55,0.077814
6384.4,0.077745
6392.27,0.077802
6400.17,0.07787
6408.08,0.077984
6416.01,0.07814
6423.96,0.077919
6431.93,0.077852
6439.92,0.078012
6447.93,0.078058
6455.96,0.078128
6464.01,0.078115
6472.08,0.078162
6480.17,0.078223
6488.28,0.078283
6496.41,0.078333
6504.56,0.078219
6512.73,0.078168
6520.92,0.078302
6529.14,0.078294
6537.37,0.07828
6545.63,0.07837
6553.9,0.078444
6562.2,0.078455
6570.51,0.078481
6578.85,0.078537
6587.21,0.078459
6595.59,0.078535
6603.99,0.07855
6612.42,0.078573
6620.86,0.078578
6629.33,0.078609
6637.82,0.078747
6646.33,0.078642
6654.86,0.078549
6663.41,0.07872
6671.99,0.078836
6680.59,0.078864
6689.21,0.078878
6697.85,0.078866
6706.51,0.078949
6715.2,0.079007
6723.91,0.078975
6732.64,0.078997
6741.4,0.079041
6750.18,0.07913
6758.98,0.079168
6767.8,0.079171
6776.65,0.079204
6785.52,0.079213
6794.41,0.079244
6803.33,0.079183
6812.27,0.07923
6821.23,0.079335
6830.22,0.079374
6839.23,0.079326
6848.26,0.079357
6857.32,0.07943
6866.4,0.079503
6875.51,0.079365
6884.64,0.079317
6893.8,0.0794
6902.98,0.079441
6912.18,0.079506
6921.41,0.079503
6930.66,0.07954
6939.94,0.07954
6949.24,0.07953
6958.57,0.079601
6967.92,0.07961
6977.3,0.079504
6986.7,0.079575
6996.13,0.07959
7005.59,0.079555
7015.07,0.079534
7024.57,0.079591
7034.1,0.079605
7043.66,0.079626
7053.25,0.079626
7062.85,0.079596
7072.49,0.079659
7082.15,0.079708
7091.84,0.079732
7101.55,0.079743
7111.3,0.079792
7121.06,0.079836
7130.86,0.07981
7140.68,0.079816
7150.53,0.079877
7160.41,0.079883
7170.31,0.07994
7180.24,0.079963
7190.2,0.079968
7200.19,0.080033
7210.2,0.080081
7220.24,0.080088
7230.31,0.080077
7240.41,0.08009
7250.54,0.080104
7260.69,0.080141
7270.88,0.080182
7281.09,0.080213
7291.33,0.080187
7301.6,0.080211
7311.9,0.080246
7322.22,0.080283
7332.58,0.080342
7342.97,0.080379
7353.38,0.080336
7363.83,0.080361
7374.3,0.080426
7384.81,0.080466
7395.34,0.080479
7405.91,0.080522
7416.5,0.080557
7427.13,0.080588
7437.78,0.080612
7448.47,0.080658
7459.19,0.080709
7469.94,0.08075
7480.71,0.080773
7491.52,0.080805
7502.37,0.080819
7513.24,0.080862
7524.14,0.080853
7535.08,0.080905
7546.05,0.080937
7557.05,0.080931
7568.08,0.080978
7579.15,0.08102
7590.24,0.081034
7601.37,0.081067
7612.53,0.081087
7623.73,0.081107
7634.96,0.08113
7646.22,0.081204
7657.51,0.08127
7668.84,0.081287
7680.2,0.081285
7691.59,0.081322
7703.02,0.08137
7714.49,0.081417
7725.98,0.081451
7737.52,0.081507
7749.08,0.081543
7760.68,0.081549
7772.32,0.081561
7783.99,0.081569
7795.69,0.081556
7807.43,0.0816
7819.21,0.081646
7831.02,0.081678
7842.87,0.081727
7854.75,0.081788
7866.67,0.081813
7878.62,0.081839
7890.62,0.081912
7902.64,0.082019
7914.71,0.082087
7926.81,0.082107
7938.95,0.082093
7951.13,0.082093
7963.34,0.082102
7975.59,0.082149
7987.88,0.082196
8000.21,0.08223
8012.57,0.082263
8024.98,0.082314
8037.42,0.08238
8049.9,0.082424
8062.42,0.082443
8074.98,0.082442
8087.57,0.082437
8100.21,0.082475
8112.89,0.082527
8125.6,0.082562
8138.36,0.082598
8151.16,0.082622
8163.99,0.082612
8176.87,0.082625
8189.79,0.082635
8202.75,0.082619
8215.75,0.082607
8228.79,0.082639
8241.87,0.082659
8254.99,0.082644
8268.16,0.082655
8281.37,0.082672
8294.62,0.082696
8307.91,0.082701
8321.24,0.082692
8334.62,0.082706
8348.04,0.082739
8361.51,0.08276
8375.02,0.082734
8388.57,0.082725
8402.16,0.082691
8415.8,0.08267
8429.49,0.0827
8443.22,0.082729
8456.99,0.082709
8470.81,0.082699
8484.67,0.082691
8498.58,0.082692
8512.54,0.082654
8526.54,0.082666
8540.58,0.082682
8554.68,0.082667
8568.82,0.082669
8583.0,0.082665
8597.24,0.08266
8611.52,0.082611
8625.85,0.082598
8640.23,0.082616
8654.65,0.082587
8669.12,0.082582
8683.64,0.082578
8698.21,0.08258
8712.83,0.08261
8727.5,0.082673
8742.22,0.082681
8756.99,0.082677
8771.8,0.082729
8786.67,0.082777
8801.59,0.082776
8816.56,0.082721
8831.58,0.082673
8846.65,0.082639
8861.77,0.082659
8876.94,0.082735
8892.17,0.08275
8907.45,0.082734
8922.78,0.082764
8938.16,0.082764
8953.6,0.082757
8969.09,0.082724
8984.64,0.082683
9000.23,0.082675
9015.89,0.082671
9031.59,0.082632
9047.36,0.082586
9063.17,0.082562
9079.05,0.082462
9094.97,0.0824
9110.96,0.082381
9127.0,0.082379
9143.1,0.08227
9159.25,0.082157
9175.46,0.082077
9191.73,0.081973
9208.06,0.081882
9224.44,0.081768
9240.88,0.081635
9257.38,0.081566
9273.94,0.081525
9290.56,0.08148
9307.24,0.081378
9323.98,0.081308
9340.78,0.081275
9357.64,0.081262
9374.57,0.081229
9391.55,0.081185
9408.59,0.081135
9425.7,0.081098
9442.87,0.081047
9460.1,0.080998
9477.4,0.080942
9494.75,0.080885
9512.17,0.080821
9529.66,0.080752
9547.21,0.080683
9564.83,0.08063
9582.5,0.080608
9600.25,0.080652
9618.06,0.080658
9635.94,0.080652
9653.88,0.080662
9671.89,0.0807
9689.97,0.080701
9708.12,0.080699
9726.33,0.080722
9744.62,0.08072
9762.97,0.080672
9781.39,0.080607
9799.88,0.080551
9818.44,0.080548
9837.07,0.080498
9855.77,0.080414
9874.54,0.080332
9893.39,0.080283
9912.3,0.080154
9931.29,0.080033
9950.36,0.079958
9969.49,0.079932
9988.7,0.079878
10007.98,0.079753
10027.34,0.079727
10046.77,0.079666
10066.28,0.079516
10085.87,0.079465
10105.53,0.079458
10125.26,0.079385
10145.08,0.079353
10164.97,0.079361
10184.94,0.079361
10204.99,0.079352
10225.12,0.079272
10245.33,0.079184
10265.61,0.079167
10285.98,0.079218
10306.43,0.079239
10326.96,0.079255
10347.57,0.079273
10368.27,0.079307
10389.05,0.07933
10409.91,0.079339
10430.86,0.079397
10451.88,0.079479
10473.0,0.079491
10494.2,0.079551
10515.49,0.079626
10536.86,0.079621
10558.32,0.079676
10579.87,0.079753
10601.5,0.079804
10623.23,0.079863
10645.04,0.079999
10666.94,0.080169
10688.94,0.080251
10711.02,0.080323
10733.2,0.080443
10755.47,0.080566
10777.83,0.080664
10800.28,0.080766
10822.83,0.080832
10845.47,0.080901
10868.21,0.080973
10891.04,0.081053
10913.97,0.081089
10936.99,0.081119
10960.12,0.081135
10983.34,0.081167
11006.66,0.081248
11030.07,0.081238
11053.59,0.081215
11077.21,0.08124
11100.93,0.08125
11124.75,0.08125
11148.68,0.081262
11172.71,0.081319
11196.84,0.081339
11221.07,0.081365
11245.41,0.081323
11269.86,0.081288
11294.41,0.081258
11319.07,0.081256
11343.84,0.081273
11368.72,0.081236
11393.7,0.081193
11418.8,0.081148
11444.01,0.081178
11469.33,0.08118
11494.76,0.081114
11520.3,0.081076
11545.96,0.081093
11571.73,0.081128
11597.62,0.081062
11623.62,0.080985
11649.74,0.08094
11675.98,0.080939
11702.34,0.080977
11728.81,0.081026
11755.41,0.080989
11782.13,0.080901
11808.96,0.080862
11835.92,0.08087
11863.01,0.080904
11890.22,0.080978
11917.55,0.080969
11945.01,0.080911
11972.6,0.080925
12000.31,0.081006
12028.16,0.081101
12056.13,0.081127
12084.23,0.081135
12112.46,0.081132
12140.83,0.081105
12169.33,0.081121
12197.96,0.081181
12226.73,0.081223
12255.64,0.081193
12284.68,0.081127
12313.86,0.081083
12343.18,0.081132
12372.64,0.081212
12402.24,0.081266
12431.98,0.081234
12461.86,0.081214
12491.89,0.081188
12522.07,0.08121
12552.38,0.081186
12582.85,0.08118
12613.47,0.081214
12644.23,0.081208
12675.15,0.081231
12706.21,0.08131
12737.43,0.081358
12768.81,0.081399
12800.33,0.081426
12832.02,0.081478
12863.86,0.081568
12895.86,0.081692
12928.02,0.081734
12960.34,0.081758
12992.82,0.081836
13025.46,0.081946
13058.27,0.082009
13091.25,0.082154
13124.39,0.082292
13157.7,0.082377
13191.18,0.082466
13224.83,0.082561
13258.66,0.082694
13292.65,0.082855
13326.83,0.082958
13361.17,0.083078
13395.7,0.083127
13430.4,0.08323
13465.29,0.083319
13500.35,0.08347
13535.6,0.08361
13571.03,0.083676
13606.65,0.083766
13642.46,0.08391
13678.46,0.084067
13714.64,0.08414
13751.02,0.084143
13787.59,0.084177
13824.36,0.084242
13861.32,0.084267
13898.49,0.084318
13935.85,0.084443
13973.41,0.084499
14011.17,0.084558
14049.15,0.084644
14087.32,0.084769
14125.71,0.084848
14164.3,0.084928
14203.11,0.085042
14242.13,0.085149
14281.36,0.085306
14320.81,0.085478
14360.49,0.085661
14400.38,0.085759
14440.49,0.085838
14480.82,0.08604
14521.39,0.086266
14562.18,0.086504
14603.2,0.086591
14644.45,0.086669
14685.93,0.086852
14727.66,0.087101
14769.62,0.087267
14811.81,0.087451
14854.25,0.0877
14896.94,0.087845
14939.87,0.08797
14983.05,0.088253
15026.48,0.088419
15070.16,0.088363
15114.1,0.088389
15158.29,0.088454
15202.74,0.088552
15247.46,0.088706
15292.43,0.088771
15337.68,0.088811
15383.19,0.088937
15428.97,0.089057
15475.03,0.089132
15521.36,0.089303
15567.97,0.089484
15614.87,0.089483
15662.04,0.089349
15709.5,0.0894
15757.25,0.089468
15805.29,0.08945
15853.62,0.089476
15902.26,0.089526
15951.19,0.089654
16000.42,0.089804
16049.95,0.089948
16099.8,0.090068
16149.95,0.090242
16200.42,0.090542
16251.21,0.090725
16302.31,0.090915
16353.74,0.091187
16405.49,0.091353
16457.57,0.091467
16509.98,0.091731
16562.73,0.092091
16615.82,0.092423
16669.24,0.0927
16723.02,0.093125
16777.14,0.093587
16831.61,0.093995
16886.43,0.094524
16941.62,0.095063
16997.16,0.095533
17053.08,0.09619
17109.36,0.096889
17166.01,0.097589
17223.04,0.098331
17280.45,0.09915
17338.24,0.099954
17396.43,0.100819
17455.0,0.101749
17513.97,0.102758
17573.34,0.103783
17633.11,0.104703
17693.29,0.105726
17753.89,0.106836
17814.9,0.107709
17876.33,0.108575
17938.18,0.109172
18000.47,0.109505
18063.19,0.109713
18126.35,0.109803
18189.95,0.109565
18254.0,0.108945
18318.5,0.108287
18383.46,0.107674
18448.88,0.106967
18514.77,0.106131
18581.13,0.105279
18647.97,0.104636
18715.29,0.104064
18783.1,0.103474
18851.4,0.102685
18920.2,0.102036
18989.51,0.101632
19059.32,0.10113
19129.65,0.10055
19200.5,0.100119
19271.88,0.099861
19343.79,0.099573
19416.24,0.099065
19489.23,0.098573
19562.77,0.098304
19636.88,0.098021
19711.54,0.097662
19786.78,0.097308
19862.59,0.096995
19938.98,0.096846
20015.96,0.096735
20093.55,0.096525
20171.73,0.096381
20250.53,0.096164
20329.94,0.095968
20409.98,0.095747
20490.65,0.095353
20571.96,0.095099
20653.92,0.094891
20736.54,0.094631
20819.82,0.094739
20903.77,0.09491
20988.4,0.094944
21073.72,0.095225
21159.73,0.09539
21246.46,0.095603
21333.89,0.095499
21422.04,0.095566
21510.93,0.096021
21600.56,0.096405
21690.94,0.0966
21782.08,0.096612
21873.99,0.096858
21966.67,0.097515
22060.15,0.097668
22154.42,0.097672
22249.51,0.098117
22345.41,0.098536
22442.14,0.098521
22539.72,0.098724
22638.14,0.099327
22737.43,0.099862
22837.6,0.10018
22938.65,0.1005
23040.6,0.100742
23143.46,0.100847
23247.24,0.100888
23351.96,0.101027
23457.63,0.101251
23564.25,0.101211
23671.85,0.101546
23780.44,0.102123
23890.02,0.102252
24000.63,0.101842
24112.26,0.101622
24224.93,0.101344
24338.66,0.101368
24453.47,0.101988
24569.36,0.102206
24686.36,0.102579
24804.47,0.102798
24923.73,0.102819
25044.13,0.103217
25165.71,0.103555
25288.46,0.103303
25412.43,0.10339
25537.61,0.103147
25664.04,0.102913
25791.72,0.103875
25920.68,0.104853
