Database of Origin,University of Winnipeg Spectrophotometer Facility
Sample Description,9.2. MAGNETITE: Merged RELAB & Nicole / Merged at 2.5 um / different viewing geometry
Date Added,2016-07-15 22:03:00.042665

Data ID,RPN_MAG_03          
Sample ID,MAG103
Mineral Name,Magnetite
Grain Size,<45
Viewing Geometry,30 / 0 | 30
Resolution,1.2-129
Material Class,Magnetite

Wavelength
305.0,0.041447
310.0,0.043205
315.0,0.043572
320.0,0.044486
325.0,0.044872
330.0,0.045268
335.0,0.045543
340.0,0.045881
345.0,0.046128
350.0,0.046105
355.0,0.046737
360.0,0.047029
365.0,0.047127
370.0,0.047264
375.0,0.047261
380.0,0.047398
385.0,0.047634
390.0,0.048157
395.0,0.048458
400.0,0.048699
405.0,0.049426
410.0,0.048658
415.0,0.049402
420.0,0.049367
425.0,0.049493
430.0,0.04962
435.0,0.049509
440.0,0.049128
445.0,0.049199
450.0,0.049248
455.0,0.049207
460.0,0.049285
465.0,0.049235
470.0,0.049336
475.0,0.049282
480.0,0.049426
485.0,0.049408
490.0,0.049511
495.0,0.049649
500.0,0.04965
505.0,0.049716
510.0,0.049821
515.0,0.049833
520.0,0.049904
525.0,0.049981
530.0,0.050124
535.0,0.050413
540.0,0.050465
545.0,0.050655
550.0,0.050776
555.0,0.050898
560.0,0.051018
565.0,0.051065
570.0,0.05122
575.0,0.051294
580.0,0.051388
585.0,0.05155
590.0,0.05173
595.0,0.051822
600.0,0.05192
605.0,0.052074
610.0,0.052478
615.0,0.052643
620.0,0.052952
625.0,0.053147
630.0,0.053305
635.0,0.053528
640.0,0.053691
645.0,0.053797
650.0,0.053942
655.0,0.053981
660.0,0.054015
665.0,0.054034
670.0,0.054075
675.0,0.054094
680.0,0.054124
685.0,0.054175
690.0,0.05425
695.0,0.054305
700.0,0.054429
705.0,0.054479
710.0,0.05451
715.0,0.054587
720.0,0.05457
725.0,0.054612
730.0,0.054513
735.0,0.054508
740.0,0.054574
745.0,0.054732
750.0,0.054755
755.0,0.055044
760.0,0.055148
765.0,0.055046
770.0,0.055079
775.0,0.054916
780.0,0.054962
785.0,0.054934
790.0,0.054948
795.0,0.054855
800.0,0.054653
805.0,0.055167
810.0,0.054765
815.0,0.054555
820.0,0.054753
825.0,0.054665
830.0,0.054009
835.0,0.054409
840.0,0.054432
845.0,0.054241
850.0,0.053764
855.0,0.053284
860.0,0.053393
865.0,0.052631
870.0,0.052863
875.0,0.052254
880.0,0.052152
885.0,0.051736
890.0,0.051599
895.0,0.051872
900.0,0.051458
905.0,0.05081
910.0,0.050548
915.0,0.049889
920.0,0.049676
925.0,0.049806
930.0,0.04938
935.0,0.049431
940.0,0.048971
945.0,0.049188
950.0,0.048845
955.0,0.049048
960.0,0.048618
965.0,0.048462
970.0,0.048036
975.0,0.048084
980.0,0.048168
985.0,0.047702
990.0,0.048075
995.0,0.047776
1000.0,0.047593
1005.0,0.047703
1010.0,0.04735
1015.0,0.047222
1020.0,0.04655
1025.0,0.04654
1030.0,0.046667
1035.0,0.046261
1040.0,0.046292
1045.0,0.046352
1050.0,0.046116
1055.0,0.046156
1060.0,0.045898
1065.0,0.045929
1070.0,0.045644
1075.0,0.045449
1080.0,0.045407
1085.0,0.045601
1090.0,0.045557
1095.0,0.045298
1100.0,0.045253
1105.0,0.045347
1110.0,0.045352
1115.0,0.045123
1120.0,0.045246
1125.0,0.045209
1130.0,0.045195
1135.0,0.045127
1140.0,0.044919
1145.0,0.045043
1150.0,0.044929
1155.0,0.045077
1160.0,0.044986
1165.0,0.045235
1170.0,0.044979
1175.0,0.044921
1180.0,0.044904
1185.0,0.045187
1190.0,0.045199
1195.0,0.045341
1200.0,0.045485
1205.0,0.045638
1210.0,0.045678
1215.0,0.045633
1220.0,0.045664
1225.0,0.045701
1230.0,0.04582
1235.0,0.045699
1240.0,0.045688
1245.0,0.045682
1250.0,0.045876
1255.0,0.045862
1260.0,0.045892
1265.0,0.046101
1270.0,0.045953
1275.0,0.046122
1280.0,0.046203
1285.0,0.046263
1290.0,0.046275
1295.0,0.046278
1300.0,0.046284
1305.0,0.046627
1310.0,0.046515
1315.0,0.046643
1320.0,0.04682
1325.0,0.047109
1330.0,0.04701
1335.0,0.046977
1340.0,0.047276
1345.0,0.047315
1350.0,0.047331
1355.0,0.047476
1360.0,0.047922
1365.0,0.047856
1370.0,0.047671
1375.0,0.047971
1380.0,0.048268
1385.0,0.048427
1390.0,0.048472
1395.0,0.048629
1400.0,0.048904
1405.0,0.048858
1410.0,0.048744
1415.0,0.048927
1420.0,0.048809
1425.0,0.048919
1430.0,0.048895
1435.0,0.049122
1440.0,0.049372
1445.0,0.049499
1450.0,0.04928
1455.0,0.049568
1460.0,0.049762
1465.0,0.049702
1470.0,0.049798
1475.0,0.050256
1480.0,0.049992
1485.0,0.050306
1490.0,0.05024
1495.0,0.050427
1500.0,0.050377
1505.0,0.050533
1510.0,0.050524
1515.0,0.050877
1520.0,0.050867
1525.0,0.050924
1530.0,0.05117
1535.0,0.050986
1540.0,0.051207
1545.0,0.051807
1550.0,0.051863
1555.0,0.05189
1560.0,0.051908
1565.0,0.05213
1570.0,0.052056
1575.0,0.05232
1580.0,0.05252
1585.0,0.052362
1590.0,0.052759
1595.0,0.052672
1600.0,0.052802
1605.0,0.052884
1610.0,0.052897
1615.0,0.053019
1620.0,0.053481
1625.0,0.053354
1630.0,0.053684
1635.0,0.053659
1640.0,0.053617
1645.0,0.053891
1650.0,0.05365
1655.0,0.053947
1660.0,0.053825
1665.0,0.053404
1670.0,0.0538
1675.0,0.053832
1680.0,0.054064
1685.0,0.054186
1690.0,0.054622
1695.0,0.054485
1700.0,0.054578
1705.0,0.054688
1710.0,0.055003
1715.0,0.054727
1720.0,0.05496
1725.0,0.055132
1730.0,0.05509
1735.0,0.055212
1740.0,0.055206
1745.0,0.05545
1750.0,0.05544
1755.0,0.05536
1760.0,0.05535
1765.0,0.055518
1770.0,0.055648
1775.0,0.055911
1780.0,0.055808
1785.0,0.055956
1790.0,0.056133
1795.0,0.056188
1800.0,0.056182
1805.0,0.056472
1810.0,0.056865
1815.0,0.056969
1820.0,0.057077
1825.0,0.057206
1830.0,0.056991
1835.0,0.057142
1840.0,0.057477
1845.0,0.057551
1850.0,0.057228
1855.0,0.057513
1860.0,0.057705
1865.0,0.057721
1870.0,0.057887
1875.0,0.058057
1880.0,0.058081
1885.0,0.058023
1890.0,0.057957
1895.0,0.058118
1900.0,0.058301
1905.0,0.058226
1910.0,0.05838
1915.0,0.058353
1920.0,0.058545
1925.0,0.058524
1930.0,0.058873
1935.0,0.058983
1940.0,0.058829
1945.0,0.05894
1950.0,0.058837
1955.0,0.059083
1960.0,0.059104
1965.0,0.059006
1970.0,0.059313
1975.0,0.059382
1980.0,0.059434
1985.0,0.059586
1990.0,0.059609
1995.0,0.059509
2000.0,0.05975
2005.0,0.059747
2010.0,0.059821
2015.0,0.059857
2020.0,0.059968
2025.0,0.059996
2030.0,0.060038
2035.0,0.060143
2040.0,0.060382
2045.0,0.06061
2050.0,0.060474
2055.0,0.060609
2060.0,0.060678
2065.0,0.060649
2070.0,0.060879
2075.0,0.060666
2080.0,0.061159
2085.0,0.060973
2090.0,0.060959
2095.0,0.061069
2100.0,0.061187
2105.0,0.061332
2110.0,0.061541
2115.0,0.061251
2120.0,0.061252
2125.0,0.061449
2130.0,0.061645
2135.0,0.061584
2140.0,0.06141
2145.0,0.061568
2150.0,0.061565
2155.0,0.061726
2160.0,0.061737
2165.0,0.061923
2170.0,0.061522
2175.0,0.061571
2180.0,0.061725
2185.0,0.061874
2190.0,0.061768
2195.0,0.06173
2200.0,0.061919
2205.0,0.062007
2210.0,0.061956
2215.0,0.062259
2220.0,0.062118
2225.0,0.062223
2230.0,0.062355
2235.0,0.062467
2240.0,0.062337
2245.0,0.062339
2250.0,0.062612
2255.0,0.062557
2260.0,0.062588
2265.0,0.062668
2270.0,0.063023
2275.0,0.062784
2280.0,0.063052
2285.0,0.062662
2290.0,0.063192
2295.0,0.06318
2300.0,0.063121
2305.0,0.063253
2310.0,0.063265
2315.0,0.06326
2320.0,0.063425
2325.0,0.063334
2330.0,0.063505
2335.0,0.063275
2340.0,0.06352
2345.0,0.063284
2350.0,0.063449
2355.0,0.063401
2360.0,0.063574
2365.0,0.06375
2370.0,0.063415
2375.0,0.06359
2380.0,0.063711
2385.0,0.063817
2390.0,0.063716
2395.0,0.063947
2400.0,0.063884
2405.0,0.063836
2410.0,0.064011
2415.0,0.063897
2420.0,0.064021
2425.0,0.064188
2430.0,0.064107
2435.0,0.064193
2440.0,0.064319
2445.0,0.064142
2450.0,0.064035
2455.0,0.063993
2460.0,0.064327
2465.0,0.064265
2470.0,0.064156
2475.0,0.064448
2480.0,0.064488
2485.0,0.064287
2490.0,0.064445
2495.0,0.064467
2500.0,0.064237
2502.0,0.063969
2503.2,0.06388
2504.41,0.064174
2505.62,0.064477
2506.83,0.064249
2508.05,0.063896
2509.26,0.063784
2510.48,0.063816
2511.69,0.063914
2512.91,0.063974
2514.13,0.06387
2515.35,0.063877
2516.57,0.064046
2517.79,0.064069
2519.02,0.063878
2520.24,0.063846
2521.47,0.063999
2522.69,0.063813
2523.92,0.063659
2525.15,0.063821
2526.38,0.064125
2527.61,0.064172
2528.85,0.063999
2530.08,0.063883
2531.32,0.063742
2532.55,0.063679
2533.79,0.063729
2535.03,0.06394
2536.27,0.064021
2537.51,0.063911
2538.75,0.06385
2540.0,0.06386
2541.24,0.063806
2542.49,0.06369
2543.74,0.063658
2544.99,0.063583
2546.24,0.063552
2547.49,0.063928
2548.74,0.06406
2549.99,0.064253
2551.25,0.064218
2552.5,0.063825
2553.76,0.063626
2555.02,0.063672
2556.28,0.063797
2557.54,0.063868
2558.8,0.063953
2560.07,0.064003
2561.33,0.064035
2562.6,0.064229
2563.86,0.06419
2565.13,0.064007
2566.4,0.063836
2567.67,0.063771
2568.95,0.063822
2570.22,0.063813
2571.5,0.063944
2572.77,0.063944
2574.05,0.063823
2575.33,0.063962
2576.61,0.064185
2577.89,0.06412
2579.17,0.064208
2580.46,0.064374
2581.74,0.064239
2583.03,0.064049
2584.31,0.064078
2585.6,0.064187
2586.89,0.06433
2588.19,0.064293
2589.48,0.064346
2590.77,0.064274
2592.07,0.064015
2593.36,0.063876
2594.66,0.063996
2595.96,0.064295
2597.26,0.064521
2598.56,0.064645
2599.87,0.064458
2601.17,0.064203
2602.48,0.064017
2603.78,0.06408
2605.09,0.064228
2606.4,0.064304
2607.71,0.064172
2609.03,0.064197
2610.34,0.064195
2611.66,0.064258
2612.97,0.0643
2614.29,0.064344
2615.61,0.064326
2616.93,0.064191
2618.25,0.064084
2619.57,0.064082
2620.9,0.06411
2622.22,0.064318
2623.55,0.064296
2624.88,0.064245
2626.21,0.0643
2627.54,0.064383
2628.87,0.064332
2630.21,0.064242
2631.54,0.064256
2632.88,0.064252
2634.21,0.064172
2635.55,0.064347
2636.89,0.064385
2638.24,0.064387
2639.58,0.064288
2640.92,0.064184
2642.27,0.06437
2643.62,0.06427
2644.97,0.06411
2646.32,0.064316
2647.67,0.064384
2649.02,0.064186
2650.38,0.064134
2651.73,0.064199
2653.09,0.064273
2654.45,0.064341
2655.81,0.064241
2657.17,0.064213
2658.53,0.064062
2659.89,0.064098
2661.26,0.064258
2662.63,0.064417
2664.0,0.064511
2665.36,0.064412
2666.74,0.064227
2668.11,0.064218
2669.48,0.064177
2670.86,0.064214
2672.23,0.064328
2673.61,0.064397
2674.99,0.064254
2676.37,0.063982
2677.76,0.063846
2679.14,0.063956
2680.52,0.063938
2681.91,0.064056
2683.3,0.064128
2684.69,0.064088
2686.08,0.064116
2687.47,0.064144
2688.87,0.064307
2690.26,0.064376
2691.66,0.064349
2693.06,0.064095
2694.46,0.063757
2695.86,0.063907
2697.26,0.064102
2698.66,0.063895
2700.07,0.063695
2701.48,0.063587
2702.89,0.063669
2704.3,0.063866
2705.71,0.063827
2707.12,0.063605
2708.53,0.063516
2709.95,0.063634
2711.37,0.063607
2712.79,0.063469
2714.21,0.063309
2715.63,0.063298
2717.05,0.063313
2718.48,0.063275
2719.9,0.063149
2721.33,0.063183
2722.76,0.063212
2724.19,0.062983
2725.62,0.062868
2727.06,0.062944
2728.49,0.062791
2729.93,0.062608
2731.37,0.062525
2732.81,0.062334
2734.25,0.062173
2735.69,0.062143
2737.14,0.062043
2738.58,0.061862
2740.03,0.061893
2741.48,0.061819
2742.93,0.061692
2744.38,0.061611
2745.83,0.061371
2747.29,0.061276
2748.75,0.061267
2750.2,0.061134
2751.66,0.060877
2753.13,0.060869
2754.59,0.060805
2756.05,0.060795
2757.52,0.060681
2758.99,0.060452
2760.46,0.060274
2761.93,0.060257
2763.4,0.060173
2764.87,0.060124
2766.35,0.060059
2767.82,0.06005
2769.3,0.060078
2770.78,0.059997
2772.26,0.059734
2773.75,0.059798
2775.23,0.059867
2776.72,0.059709
2778.21,0.059474
2779.7,0.059621
2781.19,0.059774
2782.68,0.059653
2784.18,0.059673
2785.67,0.059798
2787.17,0.059668
2788.67,0.059615
2790.17,0.059598
2791.67,0.059622
2793.18,0.059652
2794.68,0.059576
2796.19,0.059503
2797.7,0.059424
2799.21,0.059383
2800.72,0.059412
2802.24,0.059411
2803.75,0.059366
2805.27,0.059271
2806.79,0.059187
2808.31,0.059092
2809.83,0.058966
2811.35,0.058889
2812.88,0.058929
2814.41,0.059006
2815.93,0.059105
2817.46,0.059108
2819.0,0.059006
2820.53,0.058914
2822.07,0.058885
2823.6,0.058818
2825.14,0.058739
2826.68,0.058918
2828.22,0.059079
2829.77,0.058945
2831.31,0.059007
2832.86,0.059181
2834.41,0.059161
2835.96,0.059164
2837.51,0.059363
2839.07,0.059438
2840.62,0.059447
2842.18,0.059419
2843.74,0.05944
2845.3,0.059437
2846.86,0.059458
2848.43,0.059532
2849.99,0.059715
2851.56,0.059696
2853.13,0.059585
2854.7,0.059587
2856.27,0.05973
2857.85,0.059733
2859.42,0.059784
2861.0,0.059703
2862.58,0.059724
2864.16,0.059708
2865.75,0.059687
2867.33,0.059633
2868.92,0.059616
2870.51,0.059632
2872.1,0.059742
2873.69,0.059781
2875.28,0.0598
2876.88,0.059854
2878.48,0.0597
2880.07,0.059553
2881.68,0.059746
2883.28,0.059869
2884.88,0.059914
2886.49,0.059903
2888.1,0.060049
2889.71,0.060046
2891.32,0.060032
2892.93,0.06005
2894.55,0.059971
2896.16,0.060015
2897.78,0.059928
2899.4,0.059844
2901.03,0.059941
2902.65,0.060061
2904.28,0.060185
2905.91,0.06015
2907.54,0.060044
2909.17,0.060049
2910.8,0.060194
2912.44,0.060137
2914.07,0.060089
2915.71,0.059969
2917.35,0.059963
2918.99,0.060092
2920.64,0.060181
2922.29,0.060199
2923.93,0.060176
2925.58,0.06001
2927.24,0.05991
2928.89,0.059907
2930.55,0.059996
2932.2,0.060034
2933.86,0.060126
2935.52,0.060217
2937.19,0.06022
2938.85,0.06019
2940.52,0.060169
2942.19,0.059987
2943.86,0.060009
2945.53,0.060142
2947.21,0.059991
2948.88,0.059933
2950.56,0.060054
2952.24,0.060085
2953.92,0.060048
2955.61,0.06002
2957.29,0.060117
2958.98,0.060005
2960.67,0.059853
2962.36,0.059987
2964.06,0.059975
2965.75,0.05986
2967.45,0.059721
2969.15,0.059725
2970.85,0.059814
2972.55,0.059941
2974.26,0.060011
2975.97,0.059972
2977.68,0.060012
2979.39,0.060173
2981.1,0.060288
2982.82,0.060238
2984.53,0.060158
2986.25,0.06024
2987.97,0.060266
2989.7,0.060224
2991.42,0.060183
2993.15,0.060166
2994.88,0.060213
2996.61,0.060288
2998.34,0.060333
3000.08,0.06022
3001.82,0.059989
3003.55,0.060099
3005.3,0.06039
3007.04,0.06038
3008.78,0.060317
3010.53,0.060271
3012.28,0.060399
3014.03,0.060394
3015.79,0.060372
3017.54,0.060362
3019.3,0.060381
3021.06,0.06053
3022.82,0.060496
3024.58,0.060451
3026.35,0.060502
3028.12,0.060468
3029.89,0.060486
3031.66,0.060525
3033.43,0.060554
3035.21,0.060547
3036.99,0.06042
3038.77,0.060424
3040.55,0.060479
3042.33,0.060541
3044.12,0.060642
3045.91,0.06067
3047.7,0.060785
3049.49,0.060736
3051.29,0.060715
3053.08,0.060723
3054.88,0.06075
3056.68,0.060806
3058.49,0.060708
3060.29,0.06057
3062.1,0.060602
3063.91,0.060811
3065.72,0.060878
3067.54,0.060822
3069.35,0.06088
3071.17,0.060959
3072.99,0.060903
3074.81,0.060772
3076.64,0.060854
3078.47,0.060768
3080.29,0.060728
3082.13,0.060861
3083.96,0.060953
3085.79,0.06099
3087.63,0.060976
3089.47,0.060966
3091.31,0.061007
3093.16,0.060972
3095.01,0.060972
3096.85,0.061062
3098.71,0.061064
3100.56,0.061093
3102.41,0.061115
3104.27,0.061065
3106.13,0.06109
3107.99,0.061109
3109.86,0.061109
3111.73,0.061109
3113.59,0.061143
3115.47,0.061139
3117.34,0.061127
3119.21,0.061091
3121.09,0.061133
3122.97,0.061367
3124.86,0.06135
3126.74,0.061212
3128.63,0.061231
3130.52,0.061226
3132.41,0.061264
3134.3,0.061314
3136.2,0.06139
3138.1,0.061335
3140.0,0.061233
3141.9,0.061225
3143.81,0.061227
3145.71,0.061257
3147.62,0.061289
3149.54,0.061331
3151.45,0.061356
3153.37,0.061302
3155.29,0.061238
3157.21,0.061151
3159.13,0.061061
3161.06,0.061083
3162.99,0.061196
3164.92,0.061279
3166.85,0.061258
3168.79,0.061155
3170.72,0.061143
3172.67,0.061176
3174.61,0.061267
3176.55,0.06141
3178.5,0.061311
3180.45,0.061134
3182.4,0.06125
3184.36,0.061341
3186.32,0.061318
3188.27,0.061376
3190.24,0.061485
3192.2,0.061495
3194.17,0.061492
3196.14,0.061459
3198.11,0.061314
3200.08,0.061243
3202.06,0.061236
3204.04,0.061199
3206.02,0.061229
3208.0,0.061256
3209.99,0.061311
3211.98,0.061271
3213.97,0.061273
3215.96,0.061277
3217.96,0.061227
3219.96,0.061251
3221.96,0.061331
3223.96,0.061328
3225.97,0.061396
3227.98,0.061439
3229.99,0.061367
3232.0,0.061327
3234.02,0.061356
3236.04,0.061291
3238.06,0.061174
3240.08,0.06113
3242.11,0.061137
3244.14,0.061272
3246.17,0.061306
3248.2,0.06123
3250.24,0.061191
3252.28,0.061211
3254.32,0.061259
3256.37,0.061268
3258.41,0.061299
3260.46,0.061326
3262.51,0.061237
3264.57,0.061302
3266.63,0.061306
3268.69,0.061268
3270.75,0.061242
3272.81,0.061273
3274.88,0.061293
3276.95,0.061215
3279.02,0.061235
3281.1,0.06122
3283.18,0.061284
3285.26,0.061331
3287.34,0.061247
3289.43,0.061254
3291.51,0.06131
3293.61,0.061273
3295.7,0.061175
3297.8,0.061146
3299.9,0.061239
3302.0,0.061281
3304.1,0.061226
3306.21,0.0611
3308.32,0.061008
3310.43,0.061076
3312.55,0.061136
3314.66,0.06108
3316.79,0.061055
3318.91,0.061033
3321.03,0.061012
3323.16,0.061017
3325.29,0.061092
3327.43,0.061169
3329.57,0.061128
3331.71,0.061078
3333.85,0.060992
3335.99,0.061014
3338.14,0.061079
3340.29,0.061062
3342.45,0.060957
3344.6,0.060925
3346.76,0.060918
3348.92,0.060804
3351.09,0.060808
3353.26,0.060969
3355.43,0.060915
3357.6,0.060977
3359.78,0.061076
3361.96,0.060977
3364.14,0.060936
3366.32,0.060998
3368.51,0.061097
3370.7,0.061096
3372.89,0.06101
3375.09,0.060968
3377.29,0.061026
3379.49,0.061005
3381.69,0.061044
3383.9,0.061046
3386.11,0.06098
3388.32,0.060943
3390.54,0.060934
3392.76,0.060899
3394.98,0.060919
3397.21,0.060877
3399.43,0.060824
3401.66,0.060897
3403.9,0.060972
3406.13,0.061054
3408.37,0.061
3410.61,0.060868
3412.86,0.060899
3415.11,0.06095
3417.36,0.060853
3419.61,0.060856
3421.87,0.060966
3424.13,0.060963
3426.39,0.060888
3428.66,0.060841
3430.93,0.060875
3433.2,0.060821
3435.48,0.060956
3437.76,0.061027
3440.04,0.060941
3442.32,0.060879
3444.61,0.060817
3446.9,0.060826
3449.19,0.060885
3451.49,0.060863
3453.79,0.060802
3456.09,0.060787
3458.4,0.060743
3460.7,0.060744
3463.02,0.060805
3465.33,0.060865
3467.65,0.060817
3469.97,0.060827
3472.29,0.06087
3474.62,0.060691
3476.95,0.060592
3479.29,0.060666
3481.62,0.06068
3483.96,0.060681
3486.3,0.060653
3488.65,0.060625
3491.0,0.060745
3493.35,0.060721
3495.71,0.060616
3498.07,0.060623
3500.43,0.060663
3502.79,0.060696
3505.16,0.060648
3507.53,0.060754
3509.91,0.060914
3512.29,0.060853
3514.67,0.060704
3517.05,0.060715
3519.44,0.060784
3521.83,0.060733
3524.23,0.060707
3526.62,0.060698
3529.02,0.060755
3531.43,0.060804
3533.83,0.060712
3536.24,0.06068
3538.66,0.060722
3541.08,0.060734
3543.5,0.060817
3545.92,0.060883
3548.35,0.06087
3550.78,0.060834
3553.21,0.060786
3555.65,0.060796
3558.09,0.060871
3560.53,0.060892
3562.98,0.060884
3565.43,0.060898
3567.88,0.060848
3570.34,0.06073
3572.8,0.060598
3575.27,0.060566
3577.73,0.060661
3580.2,0.06067
3582.68,0.060678
3585.16,0.060765
3587.64,0.060778
3590.12,0.060822
3592.61,0.060893
3595.1,0.060899
3597.6,0.06091
3600.09,0.060873
3602.6,0.060824
3605.1,0.060817
3607.61,0.060877
3610.12,0.060838
3612.64,0.060748
3615.16,0.060701
3617.68,0.060742
3620.21,0.060788
3622.74,0.060762
3625.27,0.060709
3627.81,0.06072
3630.35,0.060762
3632.89,0.060764
3635.44,0.060802
3637.99,0.060802
3640.54,0.060726
3643.1,0.060756
3645.66,0.060776
3648.23,0.06075
3650.8,0.060798
3653.37,0.06085
3655.95,0.06088
3658.53,0.060876
3661.11,0.060863
3663.7,0.060873
3666.29,0.060852
3668.89,0.060812
3671.48,0.060864
3674.09,0.060909
3676.69,0.060923
3679.3,0.060875
3681.91,0.060819
3684.53,0.060789
3687.15,0.060773
3689.78,0.060843
3692.4,0.060857
3695.04,0.060857
3697.67,0.060907
3700.31,0.060891
3702.95,0.060879
3705.6,0.060898
3708.25,0.060889
3710.91,0.060882
3713.56,0.060904
3716.23,0.060888
3718.89,0.060862
3721.56,0.060867
3724.23,0.060894
3726.91,0.060876
3729.59,0.06088
3732.28,0.060941
3734.97,0.060985
3737.66,0.060905
3740.36,0.060847
3743.06,0.0608
3745.76,0.06073
3748.47,0.060813
3751.18,0.060927
3753.9,0.060949
3756.62,0.060915
3759.34,0.060947
3762.07,0.06096
3764.8,0.060958
3767.54,0.060937
3770.28,0.060927
3773.02,0.061024
3775.77,0.061059
3778.52,0.060993
3781.28,0.060932
3784.04,0.06101
3786.8,0.061066
3789.57,0.061019
3792.34,0.061046
3795.12,0.061012
3797.9,0.060994
3800.69,0.060972
3803.47,0.06102
3806.27,0.06111
3809.06,0.061116
3811.86,0.061046
3814.67,0.060996
3817.48,0.061045
3820.29,0.061089
3823.11,0.061058
3825.93,0.061002
3828.76,0.060974
3831.59,0.061013
3834.42,0.061032
3837.26,0.060979
3840.1,0.060995
3842.95,0.06105
3845.8,0.061081
3848.65,0.061082
3851.51,0.061085
3854.38,0.061113
3857.24,0.061152
3860.12,0.06115
3862.99,0.061137
3865.87,0.061173
3868.76,0.061133
3871.65,0.061171
3874.54,0.061215
3877.44,0.061192
3880.34,0.061151
3883.25,0.061185
3886.16,0.061253
3889.07,0.061254
3891.99,0.061219
3894.92,0.061202
3897.85,0.061164
3900.78,0.06117
3903.72,0.061218
3906.66,0.061197
3909.6,0.061171
3912.55,0.061199
3915.51,0.061267
3918.47,0.061368
3921.43,0.061298
3924.4,0.061244
3927.38,0.061226
3930.35,0.061211
3933.33,0.061333
3936.32,0.06146
3939.31,0.061403
3942.31,0.061372
3945.31,0.061316
3948.31,0.061221
3951.32,0.061232
3954.34,0.061322
3957.35,0.061313
3960.38,0.061211
3963.41,0.061259
3966.44,0.061283
3969.48,0.061238
3972.52,0.061299
3975.56,0.061371
3978.61,0.061343
3981.67,0.061272
3984.73,0.0613
3987.8,0.061355
3990.87,0.06139
3993.94,0.061335
3997.02,0.061266
4000.1,0.061275
4003.19,0.061379
4006.29,0.061444
4009.39,0.061483
4012.49,0.06153
4015.6,0.061587
4018.71,0.061666
4021.83,0.061684
4024.95,0.061702
4028.08,0.061707
4031.21,0.061759
4034.35,0.061757
4037.49,0.061743
4040.64,0.061785
4043.79,0.061776
4046.94,0.061788
4050.11,0.061774
4053.27,0.061839
4056.44,0.061958
4059.62,0.061934
4062.8,0.061931
4065.99,0.06193
4069.18,0.06193
4072.38,0.06197
4075.58,0.062006
4078.78,0.062088
4082.0,0.062113
4085.21,0.061982
4088.43,0.061933
4091.66,0.062003
4094.89,0.062069
4098.13,0.062106
4101.37,0.062111
4104.62,0.06206
4107.87,0.062045
4111.13,0.062081
4114.39,0.062107
4117.66,0.062096
4120.93,0.062084
4124.21,0.062061
4127.5,0.062097
4130.79,0.062162
4134.08,0.062222
4137.38,0.062296
4140.68,0.062331
4143.99,0.062273
4147.31,0.062249
4150.63,0.062251
4153.95,0.062259
4157.29,0.062298
4160.62,0.062316
4163.96,0.06234
4167.31,0.062369
4170.66,0.062388
4174.02,0.06242
4177.39,0.062404
4180.75,0.062437
4184.13,0.062483
4187.51,0.062472
4190.89,0.062498
4194.28,0.062535
4197.68,0.06252
4201.08,0.062549
4204.49,0.062568
4207.9,0.062541
4211.32,0.062518
4214.74,0.06251
4218.17,0.062574
4221.61,0.062647
4225.05,0.06265
4228.5,0.062596
4231.95,0.062574
4235.4,0.062596
4238.87,0.062629
4242.34,0.062625
4245.81,0.062601
4249.29,0.062699
4252.78,0.062796
4256.27,0.062794
4259.77,0.062761
4263.27,0.062813
4266.78,0.062833
4270.29,0.062855
4273.81,0.062932
4277.34,0.062857
4280.87,0.062786
4284.41,0.062875
4287.95,0.062934
4291.5,0.062958
4295.06,0.06298
4298.62,0.062981
4302.19,0.063029
4305.76,0.06306
4309.34,0.063022
4312.92,0.063021
4316.52,0.063102
4320.11,0.063253
4323.72,0.063347
4327.32,0.063298
4330.94,0.063258
4334.56,0.063245
4338.19,0.063264
4341.82,0.063309
4345.46,0.063318
4349.11,0.063354
4352.76,0.063445
4356.42,0.06345
4360.08,0.063463
4363.75,0.063494
4367.43,0.063567
4371.11,0.063591
4374.8,0.063531
4378.49,0.063541
4382.19,0.063558
4385.9,0.063623
4389.61,0.063654
4393.33,0.063666
4397.06,0.063707
4400.79,0.063703
4404.53,0.06372
4408.28,0.063744
4412.03,0.063803
4415.79,0.063857
4419.55,0.063868
4423.32,0.063837
4427.1,0.063826
4430.88,0.063864
4434.68,0.063964
4438.47,0.063949
4442.28,0.063898
4446.08,0.063931
4449.9,0.063956
4453.72,0.063968
4457.55,0.064006
4461.39,0.064058
4465.23,0.064097
4469.08,0.064148
4472.94,0.064167
4476.8,0.064114
4480.67,0.0641
4484.55,0.064186
4488.43,0.064231
4492.32,0.064249
4496.21,0.064315
4500.12,0.064327
4504.03,0.064292
4507.94,0.064319
4511.87,0.064356
4515.8,0.064357
4519.73,0.064382
4523.68,0.064385
4527.63,0.064432
4531.59,0.064524
4535.55,0.06451
4539.52,0.064468
4543.5,0.064514
4547.49,0.064568
4551.48,0.064608
4555.48,0.064619
4559.49,0.064629
4563.5,0.064661
4567.52,0.064667
4571.55,0.06468
4575.58,0.064725
4579.63,0.064789
4583.67,0.064804
4587.73,0.064788
4591.79,0.064837
4595.86,0.064896
4599.94,0.0649
4604.03,0.064878
4608.12,0.064904
4612.22,0.064993
4616.33,0.065032
4620.44,0.065015
4624.56,0.065019
4628.69,0.065006
4632.83,0.065044
4636.97,0.065126
4641.12,0.06519
4645.28,0.065273
4649.45,0.065251
4653.62,0.065239
4657.8,0.065245
4661.99,0.065288
4666.19,0.065351
4670.39,0.065352
4674.6,0.065372
4678.82,0.065382
4683.05,0.065446
4687.28,0.065494
4691.52,0.065511
4695.77,0.065531
4700.03,0.065559
4704.3,0.065596
4708.57,0.06562
4712.85,0.065667
4717.14,0.065708
4721.43,0.065706
4725.74,0.065704
4730.05,0.065717
4734.37,0.065777
4738.7,0.06587
4743.03,0.065878
4747.38,0.065867
4751.73,0.065884
4756.09,0.06589
4760.45,0.065908
4764.83,0.065997
4769.21,0.066053
4773.6,0.066021
4778.0,0.066082
4782.41,0.066176
4786.83,0.066203
4791.25,0.066205
4795.68,0.06617
4800.13,0.066191
4804.57,0.066237
4809.03,0.066279
4813.5,0.066325
4817.97,0.066368
4822.45,0.066357
4826.94,0.066376
4831.44,0.066425
4835.95,0.066435
4840.46,0.066401
4844.99,0.066397
4849.52,0.066431
4854.06,0.066477
4858.61,0.066545
4863.17,0.066567
4867.73,0.06659
4872.31,0.066628
4876.89,0.066672
4881.48,0.066679
4886.08,0.066707
4890.69,0.066764
4895.31,0.066803
4899.94,0.066802
4904.57,0.066825
4909.22,0.06688
4913.87,0.066901
4918.53,0.066973
4923.21,0.067
4927.88,0.067007
4932.57,0.067039
4937.27,0.067102
4941.98,0.067123
4946.69,0.067088
4951.42,0.067121
4956.15,0.067201
4960.9,0.067221
4965.65,0.067207
4970.41,0.067238
4975.18,0.06727
4979.96,0.067333
4984.75,0.067381
4989.54,0.067434
4994.35,0.067483
4999.17,0.067495
5003.99,0.06753
5008.83,0.067556
5013.67,0.06755
5018.52,0.06755
5023.39,0.06757
5028.26,0.067598
5033.14,0.067654
5038.03,0.067693
5042.93,0.067712
5047.84,0.067747
5052.76,0.06776
5057.69,0.067774
5062.63,0.067855
5067.58,0.06793
5072.54,0.067937
5077.51,0.067934
5082.49,0.067909
5087.47,0.06795
5092.47,0.067994
5097.48,0.068043
5102.5,0.068123
5107.52,0.068147
5112.56,0.068172
5117.61,0.068214
5122.66,0.068232
5127.73,0.068259
5132.81,0.068313
5137.89,0.068385
5142.99,0.068433
5148.1,0.06847
5153.22,0.068474
5158.34,0.068473
5163.48,0.068485
5168.63,0.068479
5173.79,0.068524
5178.96,0.068601
5184.13,0.06861
5189.32,0.068643
5194.52,0.068701
5199.73,0.068729
5204.96,0.068714
5210.19,0.068719
5215.43,0.068797
5220.68,0.068826
5225.94,0.068862
5231.22,0.068881
5236.5,0.06891
5241.79,0.069014
5247.1,0.069035
5252.42,0.068984
5257.74,0.069029
5263.08,0.069088
5268.43,0.069094
5273.79,0.069102
5279.16,0.069136
5284.54,0.069175
5289.93,0.069207
5295.34,0.069254
5300.75,0.069281
5306.18,0.069296
5311.61,0.069335
5317.06,0.069383
5322.52,0.069429
5327.99,0.069443
5333.47,0.069466
5338.96,0.069517
5344.47,0.069546
5349.98,0.069581
5355.51,0.069674
5361.05,0.06972
5366.6,0.069701
5372.16,0.069732
5377.73,0.06976
5383.32,0.069814
5388.91,0.06987
5394.52,0.069818
5400.14,0.069816
5405.77,0.069861
5411.41,0.069885
5417.07,0.069911
5422.74,0.070006
5428.41,0.070031
5434.1,0.070012
5439.81,0.070083
5445.52,0.070124
5451.25,0.070163
5456.98,0.070178
5462.73,0.070185
5468.5,0.070206
5474.27,0.070226
5480.06,0.070293
5485.86,0.070317
5491.67,0.070282
5497.49,0.070299
5503.33,0.070301
5509.18,0.07034
5515.04,0.070394
5520.91,0.070467
5526.8,0.070486
5532.69,0.070488
5538.61,0.070449
5544.53,0.070417
5550.47,0.070394
5556.41,0.07041
5562.38,0.070435
5568.35,0.070422
5574.34,0.070419
5580.34,0.070532
5586.35,0.070565
5592.38,0.070589
5598.42,0.070719
5604.47,0.070847
5610.54,0.07085
5616.61,0.070866
5622.71,0.070928
5628.81,0.070951
5634.93,0.070961
5641.06,0.070994
5647.21,0.071037
5653.36,0.071045
5659.54,0.071133
5665.72,0.071133
5671.92,0.071161
5678.13,0.071242
5684.36,0.071257
5690.6,0.071268
5696.85,0.071315
5703.12,0.071328
5709.4,0.071397
5715.69,0.071468
5722.0,0.07148
5728.33,0.071539
5734.66,0.071592
5741.01,0.071665
5747.38,0.071663
5753.76,0.071665
5760.15,0.071715
5766.56,0.071844
5772.98,0.071874
5779.41,0.071809
5785.86,0.071814
5792.33,0.071805
5798.81,0.071866
5805.3,0.071916
5811.81,0.071949
5818.33,0.072013
5824.87,0.072104
5831.42,0.072079
5837.99,0.072045
5844.57,0.072065
5851.17,0.072091
5857.78,0.072146
5864.41,0.072183
5871.05,0.072174
5877.7,0.072206
5884.38,0.072428
5891.06,0.072307
5897.76,0.072321
5904.48,0.07237
5911.21,0.072263
5917.96,0.07234
5924.73,0.072375
5931.5,0.072361
5938.3,0.072424
5945.11,0.072397
5951.93,0.072334
5958.78,0.072384
5965.63,0.072353
5972.51,0.072428
5979.39,0.072399
5986.3,0.072447
5993.22,0.072562
6000.16,0.072491
6007.11,0.072436
6014.08,0.072513
6021.06,0.072529
6028.06,0.072453
6035.08,0.072427
6042.12,0.072478
6049.17,0.072625
6056.23,0.072576
6063.32,0.072291
6070.42,0.072369
6077.53,0.072384
6084.67,0.072263
6091.82,0.072115
6098.98,0.072046
6106.17,0.072007
6113.37,0.072071
6120.58,0.072078
6127.82,0.072017
6135.07,0.072114
6142.34,0.072264
6149.63,0.072384
6156.93,0.072505
6164.25,0.07265
6171.59,0.072775
6178.95,0.072907
6186.32,0.073064
6193.71,0.073151
6201.12,0.073155
6208.54,0.073282
6215.99,0.073382
6223.45,0.07344
6230.93,0.073496
6238.43,0.073506
6245.95,0.073547
6253.48,0.073643
6261.03,0.073715
6268.6,0.073798
6276.19,0.07384
6283.8,0.07389
6291.43,0.073922
6299.07,0.073949
6306.73,0.073975
6314.42,0.074052
6322.12,0.074122
6329.84,0.074201
6337.57,0.074284
6345.33,0.074425
6353.11,0.074478
6360.9,0.074445
6368.72,0.074554
6376.55,0.074618
6384.4,0.074582
6392.27,0.074653
6400.17,0.074733
6408.08,0.074874
6416.01,0.075161
6423.96,0.075134
6431.93,0.075017
6439.92,0.075097
6447.93,0.075102
6455.96,0.075149
6464.01,0.075223
6472.08,0.075329
6480.17,0.075426
6488.28,0.075544
6496.41,0.07568
6504.56,0.075598
6512.73,0.075451
6520.92,0.075555
6529.14,0.075602
6537.37,0.075561
6545.63,0.075646
6553.9,0.075626
6562.2,0.075524
6570.51,0.075542
6578.85,0.075693
6587.21,0.075602
6595.59,0.075577
6603.99,0.075486
6612.42,0.075439
6620.86,0.07548
6629.33,0.075476
6637.82,0.075531
6646.33,0.075492
6654.86,0.075294
6663.41,0.075203
6671.99,0.075207
6680.59,0.07523
6689.21,0.075216
6697.85,0.075129
6706.51,0.075143
6715.2,0.07518
6723.91,0.075118
6732.64,0.075101
6741.4,0.075082
6750.18,0.075059
6758.98,0.075052
6767.8,0.075059
6776.65,0.07508
6785.52,0.075066
6794.41,0.075102
6803.33,0.075002
6812.27,0.074954
6821.23,0.075
6830.22,0.075035
6839.23,0.074973
6848.26,0.074936
6857.32,0.074978
6866.4,0.075068
6875.51,0.07501
6884.64,0.074911
6893.8,0.074947
6902.98,0.074946
6912.18,0.074995
6921.41,0.074996
6930.66,0.075004
6939.94,0.074992
6949.24,0.075011
6958.57,0.075049
6967.92,0.075107
6977.3,0.075083
6986.7,0.075142
6996.13,0.075178
7005.59,0.075244
7015.07,0.075297
7024.57,0.075375
7034.1,0.075436
7043.66,0.075548
7053.25,0.075646
7062.85,0.075619
7072.49,0.075686
7082.15,0.075818
7091.84,0.07593
7101.55,0.076003
7111.3,0.076064
7121.06,0.076099
7130.86,0.076068
7140.68,0.076086
7150.53,0.076189
7160.41,0.076258
7170.31,0.07633
7180.24,0.076415
7190.2,0.076442
7200.19,0.076508
7210.2,0.07658
7220.24,0.076627
7230.31,0.076663
7240.41,0.076755
7250.54,0.07684
7260.69,0.076957
7270.88,0.077003
7281.09,0.077051
7291.33,0.07711
7301.6,0.077183
7311.9,0.077217
7322.22,0.077233
7332.58,0.077276
7342.97,0.077399
7353.38,0.077471
7363.83,0.077536
7374.3,0.077654
7384.81,0.077686
7395.34,0.077658
7405.91,0.077676
7416.5,0.077748
7427.13,0.077782
7437.78,0.077849
7448.47,0.077945
7459.19,0.07799
7469.94,0.078042
7480.71,0.07806
7491.52,0.078067
7502.37,0.078057
7513.24,0.07808
7524.14,0.078091
7535.08,0.078104
7546.05,0.078155
7557.05,0.078229
7568.08,0.078282
7579.15,0.078309
7590.24,0.078313
7601.37,0.078347
7612.53,0.078362
7623.73,0.078404
7634.96,0.078457
7646.22,0.078511
7657.51,0.078514
7668.84,0.078487
7680.2,0.078507
7691.59,0.078565
7703.02,0.07858
7714.49,0.07856
7725.98,0.07855
7737.52,0.078541
7749.08,0.078562
7760.68,0.078626
7772.32,0.07864
7783.99,0.078635
7795.69,0.078665
7807.43,0.078695
7819.21,0.07871
7831.02,0.07875
7842.87,0.078792
7854.75,0.078805
7866.67,0.078836
7878.62,0.078894
7890.62,0.078993
7902.64,0.079083
7914.71,0.079129
7926.81,0.079144
7938.95,0.079073
7951.13,0.079031
7963.34,0.078969
7975.59,0.078961
7987.88,0.078993
8000.21,0.079009
8012.57,0.079023
8024.98,0.07902
8037.42,0.079035
8049.9,0.079056
8062.42,0.079018
8074.98,0.07904
8087.57,0.07904
8100.21,0.079049
8112.89,0.079073
8125.6,0.079147
8138.36,0.07915
8151.16,0.079126
8163.99,0.079084
8176.87,0.079077
8189.79,0.079073
8202.75,0.079038
8215.75,0.079041
8228.79,0.079081
8241.87,0.079133
8254.99,0.079151
8268.16,0.079107
8281.37,0.079078
8294.62,0.079075
8307.91,0.079043
8321.24,0.078983
8334.62,0.078955
8348.04,0.07897
8361.51,0.078999
8375.02,0.079026
8388.57,0.078998
8402.16,0.078931
8415.8,0.078877
8429.49,0.078833
8443.22,0.078771
8456.99,0.078711
8470.81,0.078751
8484.67,0.07876
8498.58,0.078728
8512.54,0.078681
8526.54,0.078627
8540.58,0.078568
8554.68,0.078509
8568.82,0.07846
8583.0,0.078437
8597.24,0.078339
8611.52,0.07827
8625.85,0.078234
8640.23,0.078224
8654.65,0.078215
8669.12,0.078182
8683.64,0.078144
8698.21,0.078094
8712.83,0.078022
8727.5,0.077963
8742.22,0.077946
8756.99,0.077904
8771.8,0.077833
8786.67,0.077753
8801.59,0.077679
8816.56,0.077679
8831.58,0.077625
8846.65,0.077493
8861.77,0.077452
8876.94,0.077514
8892.17,0.077489
8907.45,0.077386
8922.78,0.07735
8938.16,0.077324
8953.6,0.077208
8969.09,0.077133
8984.64,0.077037
9000.23,0.076976
9015.89,0.076919
9031.59,0.076859
9047.36,0.076814
9063.17,0.076743
9079.05,0.076693
9094.97,0.076671
9110.96,0.076638
9127.0,0.076617
9143.1,0.076567
9159.25,0.076482
9175.46,0.076442
9191.73,0.076438
9208.06,0.076418
9224.44,0.076446
9240.88,0.076458
9257.38,0.076428
9273.94,0.076438
9290.56,0.076482
9307.24,0.076522
9323.98,0.076478
9340.78,0.076407
9357.64,0.076392
9374.57,0.076435
9391.55,0.07645
9408.59,0.076431
9425.7,0.076391
9442.87,0.07632
9460.1,0.076196
9477.4,0.076081
9494.75,0.075994
9512.17,0.075921
9529.66,0.075868
9547.21,0.07584
9564.83,0.075799
9582.5,0.075754
9600.25,0.075674
9618.06,0.075622
9635.94,0.075553
9653.88,0.075505
9671.89,0.075488
9689.97,0.075459
9708.12,0.075544
9726.33,0.075602
9744.62,0.075531
9762.97,0.075492
9781.39,0.075505
9799.88,0.07549
9818.44,0.075467
9837.07,0.075387
9855.77,0.075325
9874.54,0.075285
9893.39,0.075185
9912.3,0.075071
9931.29,0.074937
9950.36,0.074777
9969.49,0.074644
9988.7,0.07442
10007.98,0.074193
10027.34,0.074104
10046.77,0.074032
10066.28,0.073867
10085.87,0.073739
10105.53,0.073675
10125.26,0.073587
10145.08,0.073477
10164.97,0.073382
10184.94,0.073286
10204.99,0.073296
10225.12,0.07327
10245.33,0.073347
10265.61,0.07348
10285.98,0.073562
10306.43,0.073598
10326.96,0.073662
10347.57,0.073809
10368.27,0.073898
10389.05,0.073966
10409.91,0.074046
10430.86,0.074235
10451.88,0.074458
10473.0,0.074571
10494.2,0.074672
10515.49,0.074735
10536.86,0.074758
10558.32,0.074831
10579.87,0.074947
10601.5,0.075068
10623.23,0.075208
10645.04,0.075286
10666.94,0.075379
10688.94,0.075458
10711.02,0.075532
10733.2,0.075614
10755.47,0.075695
10777.83,0.075784
10800.28,0.075892
10822.83,0.076038
10845.47,0.076273
10868.21,0.076513
10891.04,0.076598
10913.97,0.076629
10936.99,0.07673
10960.12,0.076858
10983.34,0.076914
11006.66,0.076966
11030.07,0.077039
11053.59,0.077115
11077.21,0.077208
11100.93,0.077376
11124.75,0.077578
11148.68,0.077682
11172.71,0.077777
11196.84,0.077904
11221.07,0.078059
11245.41,0.078193
11269.86,0.078326
11294.41,0.078475
11319.07,0.078463
11343.84,0.078333
11368.72,0.078281
11393.7,0.078183
11418.8,0.078042
11444.01,0.07795
11469.33,0.078049
11494.76,0.078272
11520.3,0.078479
11545.96,0.078695
11571.73,0.078823
11597.62,0.078921
11623.62,0.07904
11649.74,0.079062
11675.98,0.079105
11702.34,0.079119
11728.81,0.079165
11755.41,0.079202
11782.13,0.079171
11808.96,0.079129
11835.92,0.079213
11863.01,0.079265
11890.22,0.079265
11917.55,0.079237
11945.01,0.079159
11972.6,0.079201
12000.31,0.079255
12028.16,0.079283
12056.13,0.079332
12084.23,0.079415
12112.46,0.079355
12140.83,0.079265
12169.33,0.079281
12197.96,0.0793
12226.73,0.079219
12255.64,0.079133
12284.68,0.079136
12313.86,0.079085
12343.18,0.07902
12372.64,0.078959
12402.24,0.078872
12431.98,0.07876
12461.86,0.078592
12491.89,0.078357
12522.07,0.078296
12552.38,0.078206
12582.85,0.078005
12613.47,0.077902
12644.23,0.077786
12675.15,0.07761
12706.21,0.077567
12737.43,0.077427
12768.81,0.077179
12800.33,0.077067
12832.02,0.077063
12863.86,0.077041
12895.86,0.076981
12928.02,0.076942
12960.34,0.076866
12992.82,0.076743
13025.46,0.076634
13058.27,0.076643
13091.25,0.076617
13124.39,0.076484
13157.7,0.076471
13191.18,0.076531
13224.83,0.076552
13258.66,0.076522
13292.65,0.076439
13326.83,0.076363
13361.17,0.076346
13395.7,0.076379
13430.4,0.076477
13465.29,0.076594
13500.35,0.076679
13535.6,0.076901
13571.03,0.07728
13606.65,0.07759
13642.46,0.07787
13678.46,0.078098
13714.64,0.078383
13751.02,0.078783
13787.59,0.079161
13824.36,0.079583
13861.32,0.080063
13898.49,0.080562
13935.85,0.080953
13973.41,0.081284
14011.17,0.081543
14049.15,0.081892
14087.32,0.082382
14125.71,0.082959
14164.3,0.083494
14203.11,0.083854
14242.13,0.084231
14281.36,0.08471
14320.81,0.085048
14360.49,0.085298
14400.38,0.085686
14440.49,0.086058
14480.82,0.086189
14521.39,0.08629
14562.18,0.086594
14603.2,0.086973
14644.45,0.087177
14685.93,0.087378
14727.66,0.08769
14769.62,0.087757
14811.81,0.087657
14854.25,0.087754
14896.94,0.087921
14939.87,0.088013
14983.05,0.088155
15026.48,0.088212
15070.16,0.088226
15114.1,0.088315
15158.29,0.088419
15202.74,0.088379
15247.46,0.088377
15292.43,0.088362
15337.68,0.088445
15383.19,0.088602
15428.97,0.088662
15475.03,0.088632
15521.36,0.08871
15567.97,0.08883
15614.87,0.088792
15662.04,0.088785
15709.5,0.088738
15757.25,0.088613
15805.29,0.088668
15853.62,0.088792
15902.26,0.088814
15951.19,0.088711
16000.42,0.08868
16049.95,0.088694
16099.8,0.088884
16149.95,0.08909
16200.42,0.08921
16251.21,0.089304
16302.31,0.089538
16353.74,0.089878
16405.49,0.090149
16457.57,0.090504
16509.98,0.090911
16562.73,0.09127
16615.82,0.091666
16669.24,0.092293
16723.02,0.092901
16777.14,0.093528
16831.61,0.09433
16886.43,0.095157
16941.62,0.096023
16997.16,0.096889
17053.08,0.097793
17109.36,0.098866
17166.01,0.099962
17223.04,0.101093
17280.45,0.102285
17338.24,0.103678
17396.43,0.105224
17455.0,0.106915
17513.97,0.108376
17573.34,0.110044
17633.11,0.111725
17693.29,0.113317
17753.89,0.114986
17814.9,0.116569
17876.33,0.117694
17938.18,0.118419
18000.47,0.119018
18063.19,0.119276
18126.35,0.119114
18189.95,0.118491
18254.0,0.117367
18318.5,0.116126
18383.46,0.114912
18448.88,0.113758
18514.77,0.112572
18581.13,0.111441
18647.97,0.110555
18715.29,0.109857
18783.1,0.109167
18851.4,0.108317
18920.2,0.107605
18989.51,0.107345
19059.32,0.10718
19129.65,0.10688
19200.5,0.106632
19271.88,0.106445
19343.79,0.106388
19416.24,0.106313
19489.23,0.10612
19562.77,0.105914
19636.88,0.105982
19711.54,0.105808
19786.78,0.105403
19862.59,0.105183
19938.98,0.105177
20015.96,0.105048
20093.55,0.10497
20171.73,0.104933
20250.53,0.104653
20329.94,0.104241
20409.98,0.104123
20490.65,0.103991
20571.96,0.103952
20653.92,0.104172
20736.54,0.104198
20819.82,0.103607
20903.77,0.103438
20988.4,0.103703
21073.72,0.103507
21159.73,0.103208
21246.46,0.10309
21333.89,0.102818
21422.04,0.102475
21510.93,0.10223
21600.56,0.102657
21690.94,0.103158
21782.08,0.103017
21873.99,0.10312
21966.67,0.103505
22060.15,0.103504
22154.42,0.103807
22249.51,0.103825
22345.41,0.103849
22442.14,0.104321
22539.72,0.104868
22638.14,0.105445
22737.43,0.105668
22837.6,0.105822
22938.65,0.106436
23040.6,0.106764
23143.46,0.107322
23247.24,0.107881
23351.96,0.107959
23457.63,0.107764
23564.25,0.108347
23671.85,0.10846
23780.44,0.108993
23890.02,0.109411
24000.63,0.109842
24112.26,0.11058
24224.93,0.111015
24338.66,0.111311
24453.47,0.111455
24569.36,0.112122
24686.36,0.112629
24804.47,0.112195
24923.73,0.112045
25044.13,0.111782
25165.71,0.11068
25288.46,0.110396
25412.43,0.110304
25537.61,0.108985
25664.04,0.108606
25791.72,0.111553
25920.68,0.113976
