Database of Origin,University of Winnipeg Spectrophotometer Facility
Sample Description,8. Sulfates: RELAB + Nicolet spectra / Spectra all made consistently merged: Jan. / 10 / 2005
Date Added,2016-07-15 22:05:54.825723

Data ID,RPN_SUL_14          
Sample ID,SPT104
Mineral Name,ferric sulfate (syn)
Grain Size,unsorted
Viewing Geometry,30 / 0 | 30
Resolution,5 / 1.3-129
Material Class,Sulfate

Wavelength
305.0,0.017444
310.0,0.016333
315.0,0.015978
320.0,0.01601
325.0,0.016099
330.0,0.015751
335.0,0.015474
340.0,0.015345
345.0,0.015129
350.0,0.014766
355.0,0.0145
360.0,0.01428
365.0,0.014494
370.0,0.014869
375.0,0.016222
380.0,0.018407
385.0,0.022403
390.0,0.027832
395.0,0.035157
400.0,0.045195
405.0,0.058136
410.0,0.070262
415.0,0.085372
420.0,0.095911
425.0,0.100491
430.0,0.105672
435.0,0.12061
440.0,0.14184
445.0,0.162287
450.0,0.17607
455.0,0.185451
460.0,0.19173
465.0,0.199439
470.0,0.208552
475.0,0.220387
480.0,0.234642
485.0,0.249565
490.0,0.265145
495.0,0.279431
500.0,0.291944
505.0,0.302808
510.0,0.310337
515.0,0.316208
520.0,0.319846
525.0,0.324061
530.0,0.32339
535.0,0.325526
540.0,0.326151
545.0,0.327408
550.0,0.327564
555.0,0.329847
560.0,0.331447
565.0,0.334445
570.0,0.337271
575.0,0.340982
580.0,0.345916
585.0,0.350685
590.0,0.355364
595.0,0.359577
600.0,0.364765
605.0,0.369692
610.0,0.373484
615.0,0.378229
620.0,0.381616
625.0,0.385631
630.0,0.38807
635.0,0.3906
640.0,0.391913
645.0,0.392594
650.0,0.394524
655.0,0.393915
660.0,0.393928
665.0,0.395221
670.0,0.393883
675.0,0.390768
680.0,0.390818
685.0,0.388136
690.0,0.384352
695.0,0.382232
700.0,0.376114
705.0,0.3717
710.0,0.3688
715.0,0.363453
720.0,0.359133
725.0,0.35323
730.0,0.344377
735.0,0.341778
740.0,0.335749
745.0,0.332526
750.0,0.327435
755.0,0.324449
760.0,0.319364
765.0,0.316848
770.0,0.312822
775.0,0.310195
780.0,0.306467
785.0,0.303845
790.0,0.302873
795.0,0.3006
800.0,0.305188
805.0,0.30311
810.0,0.301204
815.0,0.300653
820.0,0.300165
825.0,0.300412
830.0,0.300277
835.0,0.300071
840.0,0.301711
845.0,0.302356
850.0,0.304492
855.0,0.301918
860.0,0.303584
865.0,0.306291
870.0,0.310329
875.0,0.312635
880.0,0.317602
885.0,0.322623
890.0,0.3276
895.0,0.332829
900.0,0.338765
905.0,0.344746
910.0,0.35249
915.0,0.360471
920.0,0.368911
925.0,0.377256
930.0,0.386161
935.0,0.395623
940.0,0.406813
945.0,0.414524
950.0,0.427303
955.0,0.436454
960.0,0.445923
965.0,0.455255
970.0,0.465403
975.0,0.474034
980.0,0.486239
985.0,0.49529
990.0,0.503882
995.0,0.51413
1000.0,0.522703
1005.0,0.533609
1010.0,0.543335
1015.0,0.551438
1020.0,0.560303
1025.0,0.567785
1030.0,0.573671
1035.0,0.581977
1040.0,0.585003
1045.0,0.593286
1050.0,0.59747
1055.0,0.602865
1060.0,0.606288
1065.0,0.610963
1070.0,0.615573
1075.0,0.623468
1080.0,0.625216
1085.0,0.630944
1090.0,0.632208
1095.0,0.638051
1100.0,0.637964
1105.0,0.639408
1110.0,0.639877
1115.0,0.641458
1120.0,0.64274
1125.0,0.64222
1130.0,0.641608
1135.0,0.641977
1140.0,0.637579
1145.0,0.635665
1150.0,0.627192
1155.0,0.615788
1160.0,0.608327
1165.0,0.598305
1170.0,0.589066
1175.0,0.583777
1180.0,0.579599
1185.0,0.575688
1190.0,0.571469
1195.0,0.566126
1200.0,0.561764
1205.0,0.550128
1210.0,0.542862
1215.0,0.53746
1220.0,0.531215
1225.0,0.524729
1230.0,0.519391
1235.0,0.516432
1240.0,0.510655
1245.0,0.505872
1250.0,0.502383
1255.0,0.498853
1260.0,0.495637
1265.0,0.494069
1270.0,0.494814
1275.0,0.492999
1280.0,0.491916
1285.0,0.493286
1290.0,0.491857
1295.0,0.491132
1300.0,0.490232
1305.0,0.487772
1310.0,0.485947
1315.0,0.48369
1320.0,0.47892
1325.0,0.475054
1330.0,0.471315
1335.0,0.464523
1340.0,0.458135
1345.0,0.451663
1350.0,0.445358
1355.0,0.438649
1360.0,0.432984
1365.0,0.429954
1370.0,0.42517
1375.0,0.419731
1380.0,0.41348
1385.0,0.408787
1390.0,0.398867
1395.0,0.384741
1400.0,0.369592
1405.0,0.347334
1410.0,0.325434
1415.0,0.301489
1420.0,0.278786
1425.0,0.259459
1430.0,0.244531
1435.0,0.232895
1440.0,0.223984
1445.0,0.215543
1450.0,0.209364
1455.0,0.203579
1460.0,0.199108
1465.0,0.193797
1470.0,0.189162
1475.0,0.184153
1480.0,0.181127
1485.0,0.178044
1490.0,0.176878
1495.0,0.174704
1500.0,0.173843
1505.0,0.172265
1510.0,0.169216
1515.0,0.166676
1520.0,0.163824
1525.0,0.160214
1530.0,0.156657
1535.0,0.15343
1540.0,0.149293
1545.0,0.145666
1550.0,0.142309
1555.0,0.138913
1560.0,0.13569
1565.0,0.13503
1570.0,0.134534
1575.0,0.135025
1580.0,0.136332
1585.0,0.137167
1590.0,0.138937
1595.0,0.140232
1600.0,0.141554
1605.0,0.141933
1610.0,0.142824
1615.0,0.14268
1620.0,0.142512
1625.0,0.14166
1630.0,0.141697
1635.0,0.140467
1640.0,0.139673
1645.0,0.138793
1650.0,0.138847
1655.0,0.138078
1660.0,0.137145
1665.0,0.13594
1670.0,0.134468
1675.0,0.133255
1680.0,0.132198
1685.0,0.130989
1690.0,0.12932
1695.0,0.127731
1700.0,0.125969
1705.0,0.125271
1710.0,0.123136
1715.0,0.121559
1720.0,0.119877
1725.0,0.118761
1730.0,0.117054
1735.0,0.114929
1740.0,0.113694
1745.0,0.112158
1750.0,0.110582
1755.0,0.109173
1760.0,0.107892
1765.0,0.106262
1770.0,0.105644
1775.0,0.104178
1780.0,0.102931
1785.0,0.101411
1790.0,0.100935
1795.0,0.099941
1800.0,0.098974
1805.0,0.098141
1810.0,0.09733
1815.0,0.097413
1820.0,0.096357
1825.0,0.096607
1830.0,0.096054
1835.0,0.095684
1840.0,0.095009
1845.0,0.095181
1850.0,0.094508
1855.0,0.093733
1860.0,0.092803
1865.0,0.091591
1870.0,0.08979
1875.0,0.088908
1880.0,0.086672
1885.0,0.083188
1890.0,0.079494
1895.0,0.075042
1900.0,0.069512
1905.0,0.063258
1910.0,0.056844
1915.0,0.05106
1920.0,0.046891
1925.0,0.043187
1930.0,0.041107
1935.0,0.039833
1940.0,0.03925
1945.0,0.038359
1950.0,0.038206
1955.0,0.037504
1960.0,0.037368
1965.0,0.037013
1970.0,0.036543
1975.0,0.036051
1980.0,0.035482
1985.0,0.035013
1990.0,0.034426
1995.0,0.033772
2000.0,0.032924
2005.0,0.032234
2010.0,0.031436
2015.0,0.030743
2020.0,0.030423
2025.0,0.030169
2030.0,0.030178
2035.0,0.030036
2040.0,0.030307
2045.0,0.030506
2050.0,0.030803
2055.0,0.031027
2060.0,0.03152
2065.0,0.031819
2070.0,0.03176
2075.0,0.031641
2080.0,0.031496
2085.0,0.030971
2090.0,0.030207
2095.0,0.02962
2100.0,0.028647
2105.0,0.027658
2110.0,0.026748
2115.0,0.025985
2120.0,0.025433
2125.0,0.024982
2130.0,0.024792
2135.0,0.024497
2140.0,0.024629
2145.0,0.024765
2150.0,0.02492
2155.0,0.02536
2160.0,0.026035
2165.0,0.026294
2170.0,0.027583
2175.0,0.028536
2180.0,0.029815
2185.0,0.030747
2190.0,0.031986
2195.0,0.032926
2200.0,0.033914
2205.0,0.034587
2210.0,0.035586
2215.0,0.036105
2220.0,0.037022
2225.0,0.03747
2230.0,0.038193
2235.0,0.039082
2240.0,0.039674
2245.0,0.04005
2250.0,0.040834
2255.0,0.041451
2260.0,0.041999
2265.0,0.04227
2270.0,0.042709
2275.0,0.043055
2280.0,0.043457
2285.0,0.043733
2290.0,0.043893
2295.0,0.044021
2300.0,0.043918
2305.0,0.043493
2310.0,0.043193
2315.0,0.042962
2320.0,0.042468
2325.0,0.042389
2330.0,0.041962
2335.0,0.041457
2340.0,0.041063
2345.0,0.040335
2350.0,0.040016
2355.0,0.039347
2360.0,0.03834
2365.0,0.03837
2370.0,0.037462
2375.0,0.036898
2380.0,0.0364
2385.0,0.035633
2390.0,0.034929
2395.0,0.033997
2400.0,0.033245
2405.0,0.032843
2410.0,0.032155
2415.0,0.031231
2420.0,0.030348
2425.0,0.029665
2430.0,0.029203
2435.0,0.028512
2440.0,0.027765
2445.0,0.027313
2450.0,0.0269
2455.0,0.026237
2460.0,0.025742
2465.0,0.024758
2470.0,0.024287
2475.0,0.023845
2480.0,0.023628
2485.0,0.023025
2490.0,0.022692
2495.0,0.022056
2500.0,0.021843
2505.0,0.021568
2510.0,0.020952
2515.0,0.020717
2520.0,0.020511
2525.0,0.020015
2530.0,0.019823
2535.0,0.019605
2540.0,0.01944
2545.0,0.019221
2550.0,0.019089
2555.0,0.018904
2560.0,0.018676
2565.13,0.018556
2570.22,0.018473
2575.33,0.018289
2580.46,0.01828
2581.74,0.018148
2583.03,0.018034
2584.31,0.01801
2585.6,0.018071
2586.89,0.018005
2588.19,0.017883
2589.48,0.01782
2590.77,0.017846
2592.07,0.017909
2593.36,0.017898
2594.66,0.017768
2595.96,0.017683
2597.26,0.017788
2598.56,0.017833
2599.87,0.017816
2601.17,0.017697
2602.48,0.01762
2603.78,0.017597
2605.09,0.017424
2606.4,0.017389
2607.71,0.017491
2609.03,0.017495
2610.34,0.017455
2611.66,0.017418
2612.97,0.017402
2614.29,0.017344
2615.61,0.017309
2616.93,0.017191
2618.25,0.017122
2619.57,0.017184
2620.9,0.017082
2622.22,0.017034
2623.55,0.017021
2624.88,0.016978
2626.21,0.016937
2627.54,0.016795
2628.87,0.016797
2630.21,0.016737
2631.54,0.016662
2632.88,0.016725
2634.21,0.016693
2635.55,0.016543
2636.89,0.016439
2638.24,0.016423
2639.58,0.016426
2640.92,0.016366
2642.27,0.016266
2643.62,0.01619
2644.97,0.016141
2646.32,0.016092
2647.67,0.016066
2649.02,0.015984
2650.38,0.015862
2651.73,0.015781
2653.09,0.015767
2654.45,0.015779
2655.81,0.015716
2657.17,0.015513
2658.53,0.015423
2659.89,0.015425
2661.26,0.015299
2662.63,0.015262
2664.0,0.015259
2665.36,0.015077
2666.74,0.014938
2668.11,0.014942
2669.48,0.014832
2670.86,0.014643
2672.23,0.014577
2673.61,0.01455
2674.99,0.014491
2676.37,0.014446
2677.76,0.014316
2679.14,0.014208
2680.52,0.014063
2681.91,0.013904
2683.3,0.013888
2684.69,0.013816
2686.08,0.013658
2687.47,0.013476
2688.87,0.013356
2690.26,0.013324
2691.66,0.013263
2693.06,0.013045
2694.46,0.012898
2695.86,0.012821
2697.26,0.012723
2698.66,0.012646
2700.07,0.012503
2701.48,0.01234
2702.89,0.012117
2704.3,0.012002
2705.71,0.011918
2707.12,0.011766
2708.53,0.011649
2709.95,0.011485
2711.37,0.011247
2712.79,0.011059
2714.21,0.010878
2715.63,0.010683
2717.05,0.010594
2718.48,0.010493
2719.9,0.010235
2721.33,0.009998
2722.76,0.009838
2724.19,0.009587
2725.62,0.00937
2727.06,0.009307
2728.49,0.009066
2729.93,0.008729
2731.37,0.008589
2732.81,0.008515
2734.25,0.008305
2735.69,0.008016
2737.14,0.007781
2738.58,0.007631
2740.03,0.007465
2741.48,0.007199
2742.93,0.006977
2744.38,0.006893
2745.83,0.006675
2747.29,0.006511
2748.75,0.006392
2750.2,0.006213
2751.66,0.006064
2753.13,0.005994
2754.59,0.005942
2756.05,0.005832
2757.52,0.005756
2758.99,0.00571
2760.46,0.005525
2761.93,0.005334
2763.4,0.005281
2764.87,0.005264
2766.35,0.005219
2767.82,0.005134
2769.3,0.005025
2770.78,0.005016
2772.26,0.005009
2773.75,0.004945
2775.23,0.004834
2776.72,0.004709
2778.21,0.004711
2779.7,0.004781
2781.19,0.004767
2782.68,0.00467
2784.18,0.004619
2785.67,0.004568
2787.17,0.004515
2788.67,0.004498
2790.17,0.004496
2791.67,0.004469
2793.18,0.004468
2794.68,0.004486
2796.19,0.004496
2797.7,0.004426
2799.21,0.004375
2800.72,0.004391
2802.24,0.004286
2803.75,0.004225
2805.27,0.004267
2806.79,0.004259
2808.31,0.004201
2809.83,0.004171
2811.35,0.004209
2812.88,0.004198
2814.41,0.004152
2815.93,0.004145
2817.46,0.004166
2819.0,0.004163
2820.53,0.004146
2822.07,0.004157
2823.6,0.004131
2825.14,0.004102
2826.68,0.004102
2828.22,0.004105
2829.77,0.004102
2831.31,0.00412
2832.86,0.004082
2834.41,0.00399
2835.96,0.003974
2837.51,0.004004
2839.07,0.004017
2840.62,0.003987
2842.18,0.003992
2843.74,0.00401
2845.3,0.004016
2846.86,0.003998
2848.43,0.003916
2849.99,0.00391
2851.56,0.003938
2853.13,0.003932
2854.7,0.00391
2856.27,0.003902
2857.85,0.003975
2859.42,0.004014
2861.0,0.003985
2862.58,0.003988
2864.16,0.004028
2865.75,0.004006
2867.33,0.003962
2868.92,0.003938
2870.51,0.003927
2872.1,0.003937
2873.69,0.003946
2875.28,0.003946
2876.88,0.003886
2878.48,0.003846
2880.07,0.003874
2881.68,0.003885
2883.28,0.003841
2884.88,0.003832
2886.49,0.003869
2888.1,0.003835
2889.71,0.003778
2891.32,0.003822
2892.93,0.003895
2894.55,0.00388
2896.16,0.003811
2897.78,0.003823
2899.4,0.003839
2901.03,0.003807
2902.65,0.003815
2904.28,0.00381
2905.91,0.003842
2907.54,0.003857
2909.17,0.003831
2910.8,0.003827
2912.44,0.003812
2914.07,0.003774
2915.71,0.003792
2917.35,0.003839
2918.99,0.003861
2920.64,0.003915
2922.29,0.00393
2923.93,0.00388
2925.58,0.003887
2927.24,0.003888
2928.89,0.003864
2930.55,0.003853
2932.2,0.003846
2933.86,0.003857
2935.52,0.00385
2937.19,0.003791
2938.85,0.003753
2940.52,0.003804
2942.19,0.003835
2943.86,0.003805
2945.53,0.003826
2947.21,0.003817
2948.88,0.00384
2950.56,0.003854
2952.24,0.00385
2953.92,0.003919
2955.61,0.003899
2957.29,0.003815
2958.98,0.003774
2960.67,0.003786
2962.36,0.003797
2964.06,0.003773
2965.75,0.003786
2967.45,0.003797
2969.15,0.003816
2970.85,0.003806
2972.55,0.00378
2974.26,0.003816
2975.97,0.00385
2977.68,0.003858
2979.39,0.003829
2981.1,0.00379
2982.82,0.003793
2984.53,0.003812
2986.25,0.003818
2987.97,0.003848
2989.7,0.003846
2991.42,0.003857
2993.15,0.003814
2994.88,0.003773
2996.61,0.003781
2998.34,0.003763
3000.08,0.003798
3001.82,0.003837
3003.55,0.003872
3005.3,0.003864
3007.04,0.003851
3008.78,0.003788
3010.53,0.00382
3012.28,0.003843
3014.03,0.003853
3015.79,0.003902
3017.54,0.003923
3019.3,0.003917
3021.06,0.003902
3022.82,0.003918
3024.58,0.003952
3026.35,0.003984
3028.12,0.003985
3029.89,0.004019
3031.66,0.004061
3033.43,0.004055
3035.21,0.004027
3036.99,0.004043
3038.77,0.004108
3040.55,0.004132
3042.33,0.004131
3044.12,0.004125
3045.91,0.004163
3047.7,0.004173
3049.49,0.004208
3051.29,0.004213
3053.08,0.004204
3054.88,0.004273
3056.68,0.004292
3058.49,0.004311
3060.29,0.004353
3062.1,0.004412
3063.91,0.004421
3065.72,0.004427
3067.54,0.004451
3069.35,0.004453
3071.17,0.004447
3072.99,0.004466
3074.81,0.004532
3076.64,0.004634
3078.47,0.004634
3080.29,0.00461
3082.13,0.004629
3083.96,0.00464
3085.79,0.004649
3087.63,0.004652
3089.47,0.004709
3091.31,0.004759
3093.16,0.00475
3095.01,0.004753
3096.85,0.004742
3098.71,0.004768
3100.56,0.004841
3102.41,0.004815
3104.27,0.004841
3106.13,0.004886
3107.99,0.00486
3109.86,0.004858
3111.73,0.004886
3113.59,0.004896
3115.47,0.004911
3117.34,0.004949
3119.21,0.004965
3121.09,0.004993
3122.97,0.005026
3124.86,0.005018
3126.74,0.005036
3128.63,0.005044
3130.52,0.005033
3132.41,0.005036
3134.3,0.005028
3136.2,0.005058
3138.1,0.005091
3140.0,0.005078
3141.9,0.005046
3143.81,0.005053
3145.71,0.005099
3147.62,0.005116
3149.54,0.005098
3151.45,0.005091
3153.37,0.005098
3155.29,0.005099
3157.21,0.005109
3159.13,0.005132
3161.06,0.005151
3162.99,0.005121
3164.92,0.005117
3166.85,0.005147
3168.79,0.005164
3170.72,0.005151
3172.67,0.00511
3174.61,0.005111
3176.55,0.005127
3178.5,0.005149
3180.45,0.005157
3182.4,0.005159
3184.36,0.005153
3186.32,0.005132
3188.27,0.005123
3190.24,0.005141
3192.2,0.005132
3194.17,0.005094
3196.14,0.005087
3198.11,0.005125
3200.08,0.005158
3202.06,0.005165
3204.04,0.005146
3206.02,0.005138
3208.0,0.005123
3209.99,0.005115
3211.98,0.00509
3213.97,0.005093
3215.96,0.005096
3217.96,0.005104
3219.96,0.00514
3221.96,0.00515
3223.96,0.005122
3225.97,0.005114
3227.98,0.005127
3229.99,0.005149
3232.0,0.005176
3234.02,0.005196
3236.04,0.005196
3238.06,0.0052
3240.08,0.005233
3242.11,0.005232
3244.14,0.005209
3246.17,0.005209
3248.2,0.005216
3250.24,0.005231
3252.28,0.005245
3254.32,0.005281
3256.37,0.005296
3258.41,0.005262
3260.46,0.005277
3262.51,0.005331
3264.57,0.005348
3266.63,0.005342
3268.69,0.005342
3270.75,0.005368
3272.81,0.005359
3274.88,0.005332
3276.95,0.00531
3279.02,0.005336
3281.1,0.005352
3283.18,0.005366
3285.26,0.005371
3287.34,0.005353
3289.43,0.005362
3291.51,0.005373
3293.61,0.005409
3295.7,0.005418
3297.8,0.005385
3299.9,0.005378
3302.0,0.005389
3304.1,0.005379
3306.21,0.005387
3308.32,0.005409
3310.43,0.005439
3312.55,0.005451
3314.66,0.005415
3316.79,0.005415
3318.91,0.005451
3321.03,0.005465
3323.16,0.005469
3325.29,0.005435
3327.43,0.00542
3329.57,0.005424
3331.71,0.005439
3333.85,0.005453
3335.99,0.005428
3338.14,0.005409
3340.29,0.005418
3342.45,0.005427
3344.6,0.0054
3346.76,0.005412
3348.92,0.005411
3351.09,0.005408
3353.26,0.005426
3355.43,0.005443
3357.6,0.005471
3359.78,0.005487
3361.96,0.00549
3364.14,0.005485
3366.32,0.005481
3368.51,0.005474
3370.7,0.005441
3372.89,0.005448
3375.09,0.005477
3377.29,0.005452
3379.49,0.005459
3381.69,0.005479
3383.9,0.005487
3386.11,0.005479
3388.32,0.005444
3390.54,0.005454
3392.76,0.005488
3394.98,0.005484
3397.21,0.005479
3399.43,0.005472
3401.66,0.005448
3403.9,0.00542
3406.13,0.005412
3408.37,0.005433
3410.61,0.005467
3412.86,0.005479
3415.11,0.005472
3417.36,0.005468
3419.61,0.005477
3421.87,0.005489
3424.13,0.005462
3426.39,0.005437
3428.66,0.005433
3430.93,0.005462
3433.2,0.005465
3435.48,0.005461
3437.76,0.005459
3440.04,0.005461
3442.32,0.005481
3444.61,0.005457
3446.9,0.005448
3449.19,0.005457
3451.49,0.00545
3453.79,0.005436
3456.09,0.005423
3458.4,0.005428
3460.7,0.005415
3463.02,0.00539
3465.33,0.005396
3467.65,0.005411
3469.97,0.005433
3472.29,0.005448
3474.62,0.005446
3476.95,0.005437
3479.29,0.005431
3481.62,0.005429
3483.96,0.005447
3486.3,0.005485
3488.65,0.005492
3491.0,0.005454
3493.35,0.005428
3495.71,0.005404
3498.07,0.005407
3500.43,0.005443
3502.79,0.005467
3505.16,0.005463
3507.53,0.005475
3509.91,0.005509
3512.29,0.005513
3514.67,0.005485
3517.05,0.005461
3519.44,0.005496
3521.83,0.005505
3524.23,0.005489
3526.62,0.005514
3529.02,0.005504
3531.43,0.005483
3533.83,0.005494
3536.24,0.005519
3538.66,0.005552
3541.08,0.005545
3543.5,0.005528
3545.92,0.00551
3548.35,0.005497
3550.78,0.00552
3553.21,0.005522
3555.65,0.005515
3558.09,0.005521
3560.53,0.005532
3562.98,0.00553
3565.43,0.005545
3567.88,0.005569
3570.34,0.005563
3572.8,0.005547
3575.27,0.00551
3577.73,0.005502
3580.2,0.005534
3582.68,0.005543
3585.16,0.005539
3587.64,0.005577
3590.12,0.005606
3592.61,0.005585
3595.1,0.005551
3597.6,0.005556
3600.09,0.005562
3602.6,0.005559
3605.1,0.005557
3607.61,0.005567
3610.12,0.005554
3612.64,0.005547
3615.16,0.005566
3617.68,0.005573
3620.21,0.005566
3622.74,0.005587
3625.27,0.005606
3627.81,0.005607
3630.35,0.005613
3632.89,0.00564
3635.44,0.00564
3637.99,0.005616
3640.54,0.005602
3643.1,0.005613
3645.66,0.005619
3648.23,0.0056
3650.8,0.00562
3653.37,0.00563
3655.95,0.005626
3658.53,0.005634
3661.11,0.005674
3663.7,0.005676
3666.29,0.005662
3668.89,0.005659
3671.48,0.005655
3674.09,0.005656
3676.69,0.005653
3679.3,0.005654
3681.91,0.005667
3684.53,0.005679
3687.15,0.0057
3689.78,0.005705
3692.4,0.005712
3695.04,0.00571
3697.67,0.005697
3700.31,0.005702
3702.95,0.005731
3705.6,0.005763
3708.25,0.005754
3710.91,0.005727
3713.56,0.005735
3716.23,0.00574
3718.89,0.005736
3721.56,0.005731
3724.23,0.005729
3726.91,0.005778
3729.59,0.005811
3732.28,0.005788
3734.97,0.005775
3737.66,0.005771
3740.36,0.005767
3743.06,0.00578
3745.76,0.005792
3748.47,0.005809
3751.18,0.005826
3753.9,0.005837
3756.62,0.005812
3759.34,0.005811
3762.07,0.005832
3764.8,0.00584
3767.54,0.005843
3770.28,0.005838
3773.02,0.005866
3775.77,0.005893
3778.52,0.00589
3781.28,0.005886
3784.04,0.005896
3786.8,0.005881
3789.57,0.00589
3792.34,0.005915
3795.12,0.005925
3797.9,0.005909
3800.69,0.005901
3803.47,0.005921
3806.27,0.005948
3809.06,0.00596
3811.86,0.005966
3814.67,0.005976
3817.48,0.00599
3820.29,0.005998
3823.11,0.005988
3825.93,0.00596
3828.76,0.005958
3831.59,0.005998
3834.42,0.005998
3837.26,0.006001
3840.1,0.006008
3842.95,0.006005
3845.8,0.006017
3848.65,0.006044
3851.51,0.006066
3854.38,0.006079
3857.24,0.006093
3860.12,0.006113
3862.99,0.006112
3865.87,0.006113
3868.76,0.00612
3871.65,0.006108
3874.54,0.006092
3877.44,0.006105
3880.34,0.00612
3883.25,0.006144
3886.16,0.00616
3889.07,0.006144
3891.99,0.006151
3894.92,0.006131
3897.85,0.006104
3900.78,0.006132
3903.72,0.006162
3906.66,0.006155
3909.6,0.006146
3912.55,0.006146
3915.51,0.006158
3918.47,0.006178
3921.43,0.0062
3924.4,0.006199
3927.38,0.006207
3930.35,0.006208
3933.33,0.006197
3936.32,0.006212
3939.31,0.006208
3942.31,0.006207
3945.31,0.006215
3948.31,0.006207
3951.32,0.006207
3954.34,0.00622
3957.35,0.006227
3960.38,0.00624
3963.41,0.006244
3966.44,0.006242
3969.48,0.00627
3972.52,0.006261
3975.56,0.006223
3978.61,0.00622
3981.67,0.006232
3984.73,0.00623
3987.8,0.006229
3990.87,0.006229
3993.94,0.006235
3997.02,0.006255
4000.1,0.006256
4003.19,0.006246
4006.29,0.006266
4009.39,0.006287
4012.49,0.006278
4015.6,0.006271
4018.71,0.006271
4021.83,0.006264
4024.95,0.00625
4028.08,0.00624
4031.21,0.006246
4034.35,0.006266
4037.49,0.006279
4040.64,0.006269
4043.79,0.00626
4046.94,0.00627
4050.11,0.006253
4053.27,0.006237
4056.44,0.006245
4059.62,0.006247
4062.8,0.006243
4065.99,0.006241
4069.18,0.006242
4072.38,0.006234
4075.58,0.006259
4078.78,0.006277
4082.0,0.006247
4085.21,0.006221
4088.43,0.006217
4091.66,0.006245
4094.89,0.006261
4098.13,0.00626
4101.37,0.006244
4104.62,0.00622
4107.87,0.006234
4111.13,0.006235
4114.39,0.006225
4117.66,0.006221
4120.93,0.006215
4124.21,0.006216
4127.5,0.006219
4130.79,0.006213
4134.08,0.006206
4137.38,0.00623
4140.68,0.006259
4143.99,0.006234
4147.31,0.006209
4150.63,0.006222
4153.95,0.006229
4157.29,0.006249
4160.62,0.006266
4163.96,0.006254
4167.31,0.006231
4170.66,0.006228
4174.02,0.006241
4177.39,0.006268
4180.75,0.00627
4184.13,0.006254
4187.51,0.006246
4190.89,0.006248
4194.28,0.006271
4197.68,0.006281
4201.08,0.006286
4204.49,0.006299
4207.9,0.006314
4211.32,0.00632
4214.74,0.006301
4218.17,0.006295
4221.61,0.006308
4225.05,0.006318
4228.5,0.006305
4231.95,0.006304
4235.4,0.006315
4238.87,0.006307
4242.34,0.00631
4245.81,0.006305
4249.29,0.006308
4252.78,0.006337
4256.27,0.006361
4259.77,0.006369
4263.27,0.006371
4266.78,0.006362
4270.29,0.006352
4273.81,0.006371
4277.34,0.006391
4280.87,0.006394
4284.41,0.006396
4287.95,0.006372
4291.5,0.006367
4295.06,0.006393
4298.62,0.006406
4302.19,0.006403
4305.76,0.006424
4309.34,0.006453
4312.92,0.006453
4316.52,0.006461
4320.11,0.00648
4323.72,0.006484
4327.32,0.00649
4330.94,0.006512
4334.56,0.006517
4338.19,0.006514
4341.82,0.006524
4345.46,0.006522
4349.11,0.00651
4352.76,0.00652
4356.42,0.006551
4360.08,0.006544
4363.75,0.006533
4367.43,0.006553
4371.11,0.00657
4374.8,0.00656
4378.49,0.00656
4382.19,0.006572
4385.9,0.006574
4389.61,0.006584
4393.33,0.006576
4397.06,0.006578
4400.79,0.006597
4404.53,0.006611
4408.28,0.006627
4412.03,0.006646
4415.79,0.006645
4419.55,0.006638
4423.32,0.006631
4427.1,0.006636
4430.88,0.006637
4434.68,0.006634
4438.47,0.006631
4442.28,0.006632
4446.08,0.006626
4449.9,0.006642
4453.72,0.006657
4457.55,0.006647
4461.39,0.006651
4465.23,0.006673
4469.08,0.006661
4472.94,0.00665
4476.8,0.006657
4480.67,0.006643
4484.55,0.006627
4488.43,0.006646
4492.32,0.006662
4496.21,0.00667
4500.12,0.006669
4504.03,0.006662
4507.94,0.006664
4511.87,0.006661
4515.8,0.00666
4519.73,0.006679
4523.68,0.006697
4527.63,0.006703
4531.59,0.006706
4535.55,0.006706
4539.52,0.006729
4543.5,0.006741
4547.49,0.006736
4551.48,0.006724
4555.48,0.006713
4559.49,0.006718
4563.5,0.006732
4567.52,0.006749
4571.55,0.006761
4575.58,0.00677
4579.63,0.006772
4583.67,0.006771
4587.73,0.006781
4591.79,0.006799
4595.86,0.006808
4599.94,0.006804
4604.03,0.006812
4608.12,0.006821
4612.22,0.006822
4616.33,0.006815
4620.44,0.006817
4624.56,0.006845
4628.69,0.006864
4632.83,0.006865
4636.97,0.00684
4641.12,0.006856
4645.28,0.006883
4649.45,0.006873
4653.62,0.006857
4657.8,0.00686
4661.99,0.006853
4666.19,0.00685
4670.39,0.006874
4674.6,0.006895
4678.82,0.006913
4683.05,0.006926
4687.28,0.006922
4691.52,0.006919
4695.77,0.006913
4700.03,0.006902
4704.3,0.006897
4708.57,0.006905
4712.85,0.006899
4717.14,0.006893
4721.43,0.006897
4725.74,0.006895
4730.05,0.006906
4734.37,0.00693
4738.7,0.006935
4743.03,0.006939
4747.38,0.006935
4751.73,0.006923
4756.09,0.006914
4760.45,0.006915
4764.83,0.006926
4769.21,0.00694
4773.6,0.00693
4778.0,0.006933
4782.41,0.006938
4786.83,0.006932
4791.25,0.006937
4795.68,0.006938
4800.13,0.006943
4804.57,0.006965
4809.03,0.006965
4813.5,0.006953
4817.97,0.006947
4822.45,0.006946
4826.94,0.006938
4831.44,0.006932
4835.95,0.006948
4840.46,0.00696
4844.99,0.006951
4849.52,0.006933
4854.06,0.006919
4858.61,0.006925
4863.17,0.006926
4867.73,0.006924
4872.31,0.006935
4876.89,0.006931
4881.48,0.006923
4886.08,0.006921
4890.69,0.006932
4895.31,0.006919
4899.94,0.00691
4904.57,0.006916
4909.22,0.006914
4913.87,0.006908
4918.53,0.006906
4923.21,0.006895
4927.88,0.006886
4932.57,0.006887
4937.27,0.006897
4941.98,0.006892
4946.69,0.006873
4951.42,0.006884
4956.15,0.006897
4960.9,0.006883
4965.65,0.006876
4970.41,0.006887
4975.18,0.006903
4979.96,0.0069
4984.75,0.006879
4989.54,0.006886
4994.35,0.006914
4999.17,0.006916
5003.99,0.006891
5008.83,0.006894
5013.67,0.006896
5018.52,0.006906
5023.39,0.006928
5028.26,0.006941
5033.14,0.006927
5038.03,0.006913
5042.93,0.006919
5047.84,0.006926
5052.76,0.006923
5057.69,0.006931
5062.63,0.006931
5067.58,0.006918
5072.54,0.006927
5077.51,0.006947
5082.49,0.006952
5087.47,0.006963
5092.47,0.006954
5097.48,0.006945
5102.5,0.006946
5107.52,0.00695
5112.56,0.006951
5117.61,0.006955
5122.66,0.006962
5127.73,0.006956
5132.81,0.006967
5137.89,0.006978
5142.99,0.006969
5148.1,0.006956
5153.22,0.006962
5158.34,0.006982
5163.48,0.006996
5168.63,0.006994
5173.79,0.007002
5178.96,0.006999
5184.13,0.006979
5189.32,0.006996
5194.52,0.006997
5199.73,0.006985
5204.96,0.006989
5210.19,0.007
5215.43,0.006995
5220.68,0.006997
5225.94,0.007015
5231.22,0.007017
5236.5,0.007003
5241.79,0.006984
5247.1,0.006986
5252.42,0.006991
5257.74,0.006981
5263.08,0.00696
5268.43,0.006961
5273.79,0.00696
5279.16,0.00696
5284.54,0.006956
5289.93,0.006951
5295.34,0.006959
5300.75,0.006965
5306.18,0.006946
5311.61,0.006926
5317.06,0.006917
5322.52,0.006906
5327.99,0.006906
5333.47,0.006906
5338.96,0.006903
5344.47,0.006875
5349.98,0.00686
5355.51,0.006848
5361.05,0.006823
5366.6,0.00682
5372.16,0.006825
5377.73,0.006816
5383.32,0.006807
5388.91,0.006785
5394.52,0.006764
5400.14,0.006764
5405.77,0.00677
5411.41,0.00674
5417.07,0.006717
5422.74,0.006692
5428.41,0.006669
5434.1,0.006659
5439.81,0.00664
5445.52,0.006628
5451.25,0.006617
5456.98,0.006592
5462.73,0.006568
5468.5,0.006562
5474.27,0.006556
5480.06,0.006537
5485.86,0.006507
5491.67,0.006473
5497.49,0.006441
5503.33,0.00643
5509.18,0.006407
5515.04,0.006387
5520.91,0.006382
5526.8,0.006373
5532.69,0.006335
5538.61,0.006312
5544.53,0.006296
5550.47,0.006253
5556.41,0.006242
5562.38,0.006223
5568.35,0.006186
5574.34,0.006172
5580.34,0.006151
5586.35,0.006127
5592.38,0.00611
5598.42,0.006084
5604.47,0.00605
5610.54,0.006022
5616.61,0.006001
5622.71,0.005999
5628.81,0.005967
5634.93,0.005937
5641.06,0.005913
5647.21,0.00588
5653.36,0.005853
5659.54,0.00585
5665.72,0.005831
5671.92,0.005788
5678.13,0.005757
5684.36,0.005738
5690.6,0.005722
5696.85,0.005691
5703.12,0.005657
5709.4,0.005636
5715.69,0.005635
5722.0,0.00562
5728.33,0.005586
5734.66,0.005556
5741.01,0.005531
5747.38,0.005517
5753.76,0.005491
5760.15,0.005449
5766.56,0.005413
5772.98,0.005392
5779.41,0.005378
5785.86,0.005353
5792.33,0.005313
5798.81,0.005274
5805.3,0.005246
5811.81,0.005215
5818.33,0.005173
5824.87,0.005125
5831.42,0.005091
5837.99,0.005082
5844.57,0.005071
5851.17,0.005045
5857.78,0.005003
5864.41,0.004949
5871.05,0.004922
5877.7,0.004901
5884.38,0.004854
5891.06,0.004815
5897.76,0.004798
5904.48,0.004768
5911.21,0.004756
5917.96,0.004746
5924.73,0.00472
5931.5,0.00469
5938.3,0.004642
5945.11,0.00461
5951.93,0.004611
5958.78,0.004616
5965.63,0.004602
5972.51,0.00457
5979.39,0.004536
5986.3,0.004516
5993.22,0.0045
6000.16,0.004502
6007.11,0.004504
6014.08,0.004482
6021.06,0.004455
6028.06,0.004447
6035.08,0.004434
6042.12,0.004421
6049.17,0.004405
6056.23,0.004396
6063.32,0.004409
6070.42,0.004395
6077.53,0.004398
6084.67,0.00443
6091.82,0.004432
6098.98,0.004429
6106.17,0.004445
6113.37,0.004469
6120.58,0.004481
6127.82,0.004485
6135.07,0.004506
6142.34,0.004519
6149.63,0.004524
6156.93,0.004545
6164.25,0.00456
6171.59,0.004548
6178.95,0.004546
6186.32,0.004571
6193.71,0.004593
6201.12,0.004601
6208.54,0.004605
6215.99,0.004604
6223.45,0.004614
6230.93,0.004626
6238.43,0.004636
6245.95,0.004629
6253.48,0.004628
6261.03,0.004638
6268.6,0.004635
6276.19,0.004634
6283.8,0.004644
6291.43,0.004649
6299.07,0.004646
6306.73,0.004642
6314.42,0.004643
6322.12,0.004637
6329.84,0.004624
6337.57,0.00462
6345.33,0.004618
6353.11,0.004602
6360.9,0.004589
6368.72,0.004589
6376.55,0.004581
6384.4,0.004575
6392.27,0.004574
6400.17,0.004562
6408.08,0.004552
6416.01,0.004544
6423.96,0.00453
6431.93,0.004507
6439.92,0.004498
6447.93,0.004501
6455.96,0.004488
6464.01,0.004457
6472.08,0.004427
6480.17,0.004398
6488.28,0.004386
6496.41,0.004364
6504.56,0.004343
6512.73,0.004325
6520.92,0.004307
6529.14,0.004282
6537.37,0.004248
6545.63,0.004201
6553.9,0.004158
6562.2,0.004138
6570.51,0.004116
6578.85,0.004067
6587.21,0.004012
6595.59,0.003997
6603.99,0.003964
6612.42,0.00391
6620.86,0.003871
6629.33,0.003821
6637.82,0.003766
6646.33,0.003708
6654.86,0.003691
6663.41,0.003667
6671.99,0.003616
6680.59,0.003552
6689.21,0.003501
6697.85,0.003449
6706.51,0.00341
6715.2,0.003352
6723.91,0.003303
6732.64,0.00326
6741.4,0.003204
6750.18,0.003161
6758.98,0.003111
6767.8,0.003064
6776.65,0.003034
6785.52,0.003024
6794.41,0.003015
6803.33,0.002996
6812.27,0.002996
6821.23,0.003023
6830.22,0.003048
6839.23,0.00307
6848.26,0.003117
6857.32,0.003179
6866.4,0.003245
6875.51,0.003343
6884.64,0.003464
6893.8,0.003581
6902.98,0.003718
6912.18,0.003853
6921.41,0.004006
6930.66,0.004187
6939.94,0.004349
6949.24,0.00452
6958.57,0.004697
6967.92,0.004869
6977.3,0.00505
6986.7,0.00523
6996.13,0.005405
7005.59,0.005581
7015.07,0.005709
7024.57,0.005823
7034.1,0.005933
7043.66,0.006
7053.25,0.006032
7062.85,0.00608
7072.49,0.006114
7082.15,0.006097
7091.84,0.006039
7101.55,0.005968
7111.3,0.005881
7121.06,0.005798
7130.86,0.005707
7140.68,0.005625
7150.53,0.005523
7160.41,0.005413
7170.31,0.005303
7180.24,0.005221
7190.2,0.005131
7200.19,0.005036
7210.2,0.004948
7220.24,0.004875
7230.31,0.004814
7240.41,0.004739
7250.54,0.004679
7260.69,0.004608
7270.88,0.004528
7281.09,0.004487
7291.33,0.004442
7301.6,0.00436
7311.9,0.004297
7322.22,0.004251
7332.58,0.004197
7342.97,0.00414
7353.38,0.004077
7363.83,0.004015
7374.3,0.003962
7384.81,0.003901
7395.34,0.003836
7405.91,0.003763
7416.5,0.003712
7427.13,0.00367
7437.78,0.003612
7448.47,0.003554
7459.19,0.003494
7469.94,0.003425
7480.71,0.003353
7491.52,0.003289
7502.37,0.003224
7513.24,0.003161
7524.14,0.003103
7535.08,0.003028
7546.05,0.002952
7557.05,0.002904
7568.08,0.002854
7579.15,0.002774
7590.24,0.002696
7601.37,0.002618
7612.53,0.002546
7623.73,0.002487
7634.96,0.002428
7646.22,0.002352
7657.51,0.002282
7668.84,0.002228
7680.2,0.002182
7691.59,0.002117
7703.02,0.002053
7714.49,0.00199
7725.98,0.001963
7737.52,0.001931
7749.08,0.001893
7760.68,0.001867
7772.32,0.001868
7783.99,0.001907
7795.69,0.001967
7807.43,0.00206
7819.21,0.002192
7831.02,0.002387
7842.87,0.002653
7854.75,0.002958
7866.67,0.003312
7878.62,0.003696
7890.62,0.004099
7902.64,0.004522
7914.71,0.004973
7926.81,0.005423
7938.95,0.005851
7951.13,0.006289
7963.34,0.006725
7975.59,0.007135
7987.88,0.007514
8000.21,0.007859
8012.57,0.008206
8024.98,0.00854
8037.42,0.008851
8049.9,0.009134
8062.42,0.0094
8074.98,0.009647
8087.57,0.009857
8100.21,0.010039
8112.89,0.010236
8125.6,0.010423
8138.36,0.010557
8151.16,0.010659
8163.99,0.010728
8176.87,0.010785
8189.79,0.010848
8202.75,0.010888
8215.75,0.010886
8228.79,0.010851
8241.87,0.010797
8254.99,0.010723
8268.16,0.01066
8281.37,0.010599
8294.62,0.010518
8307.91,0.010417
8321.24,0.0103
8334.62,0.01016
8348.04,0.010028
8361.51,0.009887
8375.02,0.009731
8388.57,0.009579
8402.16,0.009427
8415.8,0.009275
8429.49,0.009156
8443.22,0.009048
8456.99,0.008957
8470.81,0.008899
8484.67,0.008878
8498.58,0.00886
8512.54,0.008858
8526.54,0.008895
8540.58,0.008919
8554.68,0.008938
8568.82,0.009002
8583.0,0.009088
8597.24,0.009175
8611.52,0.009238
8625.85,0.009299
8640.23,0.009427
8654.65,0.009546
8669.12,0.009691
8683.64,0.009898
8698.21,0.010142
8712.83,0.010433
8727.5,0.010764
8742.22,0.011116
8756.99,0.011477
8771.8,0.01185
8786.67,0.012218
8801.59,0.012568
8816.56,0.012927
8831.58,0.013302
8846.65,0.013676
8861.77,0.014057
8876.94,0.014425
8892.17,0.014763
8907.45,0.015079
8922.78,0.01538
8938.16,0.015618
8953.6,0.015786
8969.09,0.015918
8984.64,0.015983
9000.23,0.016003
9015.89,0.015999
9031.59,0.015913
9047.36,0.015782
9063.17,0.015654
9079.05,0.015493
9094.97,0.015299
9110.96,0.015128
9127.0,0.014949
9143.1,0.014747
9159.25,0.014577
9175.46,0.014429
9191.73,0.014257
9208.06,0.014104
9224.44,0.013996
9240.88,0.013907
9257.38,0.013842
9273.94,0.013799
9290.56,0.013743
9307.24,0.013714
9323.98,0.013717
9340.78,0.013735
9357.64,0.013754
9374.57,0.013743
9391.55,0.013748
9408.59,0.013763
9425.7,0.013778
9442.87,0.013806
9460.1,0.013841
9477.4,0.01388
9494.75,0.013933
9512.17,0.013998
9529.66,0.014079
9547.21,0.014157
9564.83,0.014213
9582.5,0.014204
9600.25,0.01418
9618.06,0.014171
9635.94,0.014173
9653.88,0.014187
9671.89,0.014254
9689.97,0.014352
9708.12,0.01443
9726.33,0.014505
9744.62,0.014561
9762.97,0.014569
9781.39,0.014565
9799.88,0.014546
9818.44,0.014526
9837.07,0.014542
9855.77,0.014599
9874.54,0.014623
9893.39,0.014586
9912.3,0.01453
9931.29,0.014502
9950.36,0.014495
9969.49,0.014478
9988.7,0.014432
10007.98,0.014362
10027.34,0.014286
10046.77,0.014198
10066.28,0.014122
10085.87,0.01405
10105.53,0.013963
10125.26,0.013879
10145.08,0.013792
10164.97,0.013704
10184.94,0.013614
10204.99,0.013524
10225.12,0.013438
10245.33,0.013407
10265.61,0.013363
10285.98,0.013284
10306.43,0.013213
10326.96,0.013116
10347.57,0.01302
10368.27,0.012943
10389.05,0.012852
10409.91,0.012792
10430.86,0.012711
10451.88,0.012621
10473.0,0.01253
10494.2,0.012417
10515.49,0.012301
10536.86,0.012227
10558.32,0.012109
10579.87,0.01197
10601.5,0.01183
10623.23,0.011715
10645.04,0.011608
10666.94,0.011457
10688.94,0.011334
10711.02,0.011229
10733.2,0.011092
10755.47,0.010984
10777.83,0.010865
10800.28,0.010727
10822.83,0.010612
10845.47,0.010541
10868.21,0.01043
10891.04,0.01031
10913.97,0.010225
10936.99,0.010153
10960.12,0.010048
10983.34,0.009966
11006.66,0.009879
11030.07,0.00982
11053.59,0.009752
11077.21,0.009684
11100.93,0.009625
11124.75,0.00957
11148.68,0.009514
11172.71,0.009449
11196.84,0.009392
11221.07,0.009327
11245.41,0.009275
11269.86,0.009238
11294.41,0.009169
11319.07,0.009096
11343.84,0.009043
11368.72,0.008991
11393.7,0.008954
11418.8,0.008921
11444.01,0.008885
11469.33,0.008835
11494.76,0.008788
11520.3,0.00876
11545.96,0.008713
11571.73,0.008656
11597.62,0.008624
11623.62,0.008598
11649.74,0.008562
11675.98,0.008517
11702.34,0.008469
11728.81,0.008467
11755.41,0.008463
11782.13,0.008368
11808.96,0.008279
11835.92,0.008272
11863.01,0.008299
11890.22,0.008258
11917.55,0.008187
11945.01,0.008174
11972.6,0.008171
12000.31,0.008133
12028.16,0.008109
12056.13,0.0081
12084.23,0.008046
12112.46,0.008
12140.83,0.00798
12169.33,0.007945
12197.96,0.007934
12226.73,0.0079
12255.64,0.007864
12284.68,0.007813
12313.86,0.007778
12343.18,0.007779
12372.64,0.007767
12402.24,0.007732
12431.98,0.007688
12461.86,0.007646
12491.89,0.007605
12522.07,0.007583
12552.38,0.007563
12582.85,0.007525
12613.47,0.007517
12644.23,0.007505
12675.15,0.007455
12706.21,0.007428
12737.43,0.007426
12768.81,0.007408
12800.33,0.007377
12832.02,0.007344
12863.86,0.007327
12895.86,0.007342
12928.02,0.00733
12960.34,0.00728
12992.82,0.007301
13025.46,0.007295
13058.27,0.007273
13091.25,0.007259
13124.39,0.007219
13157.7,0.0072
13191.18,0.00717
13224.83,0.007116
13258.66,0.007097
13292.65,0.007082
13326.83,0.007079
13361.17,0.007081
13395.7,0.007076
13430.4,0.007076
13465.29,0.007054
13500.35,0.007022
13535.6,0.007022
13571.03,0.007015
13606.65,0.006986
13642.46,0.006961
13678.46,0.006952
13714.64,0.006975
13751.02,0.006934
13787.59,0.006897
13824.36,0.006872
13861.32,0.006835
13898.49,0.006771
13935.85,0.006753
13973.41,0.006784
14011.17,0.006784
14049.15,0.006732
14087.32,0.006657
14125.71,0.006619
14164.3,0.00663
14203.11,0.006586
14242.13,0.006494
14281.36,0.006387
14320.81,0.006357
14360.49,0.006337
14400.38,0.006295
14440.49,0.006255
14480.82,0.0062
14521.39,0.006175
14562.18,0.006161
14603.2,0.006112
14644.45,0.006058
14685.93,0.00603
14727.66,0.00605
14769.62,0.006137
14811.81,0.006181
14854.25,0.006222
14896.94,0.006278
14939.87,0.006372
14983.05,0.00648
15026.48,0.006647
15070.16,0.006868
15114.1,0.00706
15158.29,0.007204
15202.74,0.007398
15247.46,0.007557
15292.43,0.007677
15337.68,0.007681
15383.19,0.007584
15428.97,0.007496
15475.03,0.007382
15521.36,0.007309
15567.97,0.007174
15614.87,0.007107
15662.04,0.007127
15709.5,0.007096
15757.25,0.007043
15805.29,0.007029
15853.62,0.007058
15902.26,0.007051
15951.19,0.007002
16000.42,0.007049
16049.95,0.007163
16099.8,0.007229
16149.95,0.007271
16200.42,0.007319
16251.21,0.007394
16302.31,0.007515
16353.74,0.007655
16405.49,0.007757
16457.57,0.007816
16509.98,0.007894
16562.73,0.008065
16615.82,0.008295
16669.24,0.008522
16723.02,0.008774
16777.14,0.009048
16831.61,0.009248
16886.43,0.009387
16941.62,0.009477
16997.16,0.009544
17053.08,0.009602
17109.36,0.009551
17166.01,0.009507
17223.04,0.009437
17280.45,0.009323
17338.24,0.009256
17396.43,0.009182
17455.0,0.009117
17513.97,0.009005
17573.34,0.008886
17633.11,0.008838
17693.29,0.008773
17753.89,0.008702
17814.9,0.008649
17876.33,0.008607
17938.18,0.008557
18000.47,0.00853
18063.19,0.008453
18126.35,0.008431
18189.95,0.008465
18254.0,0.008448
18318.5,0.008454
18383.46,0.008381
18448.88,0.008325
18514.77,0.008412
18581.13,0.008429
18647.97,0.008365
18715.29,0.008347
18783.1,0.00831
18851.4,0.008278
18920.2,0.008272
18989.51,0.008241
19059.32,0.008229
19129.65,0.008105
19200.5,0.008018
19271.88,0.007965
19343.79,0.007992
19416.24,0.008034
19489.23,0.00789
19562.77,0.007851
19636.88,0.007873
19711.54,0.007781
19786.78,0.007674
19862.59,0.007629
19938.98,0.007791
20015.96,0.007846
20093.55,0.007895
20171.73,0.007907
20250.53,0.007871
20329.94,0.007919
20409.98,0.008087
20490.65,0.008204
20571.96,0.008189
20653.92,0.008181
20736.54,0.008153
20819.82,0.00813
20903.77,0.008148
20988.4,0.008169
21073.72,0.008191
21159.73,0.008245
21246.46,0.008318
21333.89,0.008487
21422.04,0.008499
21510.93,0.00842
21600.56,0.008396
21690.94,0.008462
21782.08,0.008501
21873.99,0.008538
21966.67,0.008557
22060.15,0.008612
22154.42,0.008806
22249.51,0.008951
22345.41,0.008903
22442.14,0.008934
22539.72,0.008773
22638.14,0.008434
22737.43,0.008346
22837.6,0.008452
22938.65,0.008343
23040.6,0.008245
23143.46,0.008198
23247.24,0.008282
23351.96,0.008269
23457.63,0.008052
23564.25,0.007954
23671.85,0.007799
23780.44,0.007653
23890.02,0.007794
24000.63,0.007873
24112.26,0.00771
24224.93,0.00778
24338.66,0.008047
24453.47,0.008005
24569.36,0.007981
24686.36,0.007835
24804.47,0.007752
24923.73,0.00777
25044.13,0.00765
25165.71,0.007591
25288.46,0.007622
25412.43,0.008014
25537.61,0.00791
25664.04,0.007829
25791.72,0.007615
25920.68,0.007772
