Database of Origin,University of Winnipeg Spectrophotometer Facility
Sample Description,8. Sulfates: RELAB + Nicolet spectra / Spectra all made consistently merged: Jan. / 10 / 2005
Date Added,2016-07-15 22:05:54.799307

Data ID,RPN_SUL_12          
Sample ID,SPT103
Mineral Name,Letovicite
Grain Size,45-90
Viewing Geometry,30 / 0 | 30
Resolution,5 / 1.3-129
Material Class,Sulfate

Wavelength
305.0,0.181073
310.0,0.179873
315.0,0.183505
320.0,0.185856
325.0,0.19292
330.0,0.199604
335.0,0.209139
340.0,0.221177
345.0,0.235086
350.0,0.25068
355.0,0.269431
360.0,0.290518
365.0,0.312975
370.0,0.337053
375.0,0.361128
380.0,0.386381
385.0,0.408648
390.0,0.431879
395.0,0.454994
400.0,0.474218
405.0,0.489489
410.0,0.503945
415.0,0.516658
420.0,0.526537
425.0,0.534537
430.0,0.54284
435.0,0.549988
440.0,0.556113
445.0,0.562121
450.0,0.568737
455.0,0.57368
460.0,0.579136
465.0,0.584982
470.0,0.589033
475.0,0.593893
480.0,0.600492
485.0,0.603839
490.0,0.60919
495.0,0.61428
500.0,0.618545
505.0,0.62335
510.0,0.627573
515.0,0.63203
520.0,0.636393
525.0,0.641444
530.0,0.64221
535.0,0.648237
540.0,0.651363
545.0,0.655834
550.0,0.659282
555.0,0.664414
560.0,0.66795
565.0,0.672614
570.0,0.675764
575.0,0.679092
580.0,0.682729
585.0,0.68778
590.0,0.691818
595.0,0.696453
600.0,0.699397
605.0,0.703591
610.0,0.707116
615.0,0.710567
620.0,0.713186
625.0,0.717892
630.0,0.720928
635.0,0.726256
640.0,0.730151
645.0,0.730432
650.0,0.735584
655.0,0.738975
660.0,0.741964
665.0,0.748368
670.0,0.748613
675.0,0.75047
680.0,0.755549
685.0,0.758656
690.0,0.761128
695.0,0.767613
700.0,0.767662
705.0,0.770847
710.0,0.773461
715.0,0.774786
720.0,0.77973
725.0,0.781537
730.0,0.778218
735.0,0.785281
740.0,0.783176
745.0,0.788889
750.0,0.788866
755.0,0.792563
760.0,0.795272
765.0,0.797026
770.0,0.798957
775.0,0.798851
780.0,0.801347
785.0,0.80136
790.0,0.802298
795.0,0.803143
800.0,0.805098
805.0,0.805855
810.0,0.805458
815.0,0.808153
820.0,0.807729
825.0,0.810385
830.0,0.809935
835.0,0.811109
840.0,0.813362
845.0,0.811191
850.0,0.815569
855.0,0.812597
860.0,0.817191
865.0,0.814422
870.0,0.816429
875.0,0.815515
880.0,0.816532
885.0,0.816197
890.0,0.817451
895.0,0.815213
900.0,0.816739
905.0,0.814066
910.0,0.813643
915.0,0.816366
920.0,0.81398
925.0,0.81637
930.0,0.815642
935.0,0.816175
940.0,0.819271
945.0,0.816375
950.0,0.818245
955.0,0.818576
960.0,0.819261
965.0,0.81572
970.0,0.817672
975.0,0.816851
980.0,0.818493
985.0,0.817123
990.0,0.817462
995.0,0.813813
1000.0,0.810873
1005.0,0.811752
1010.0,0.812733
1015.0,0.811335
1020.0,0.809147
1025.0,0.808091
1030.0,0.805254
1035.0,0.805209
1040.0,0.8016
1045.0,0.804001
1050.0,0.798824
1055.0,0.800636
1060.0,0.800764
1065.0,0.799375
1070.0,0.79863
1075.0,0.803441
1080.0,0.803456
1085.0,0.805301
1090.0,0.806523
1095.0,0.808686
1100.0,0.807271
1105.0,0.807844
1110.0,0.807137
1115.0,0.810085
1120.0,0.811612
1125.0,0.810972
1130.0,0.810867
1135.0,0.810584
1140.0,0.809074
1145.0,0.811213
1150.0,0.807111
1155.0,0.807459
1160.0,0.8057
1165.0,0.802723
1170.0,0.798897
1175.0,0.796293
1180.0,0.793115
1185.0,0.787329
1190.0,0.784862
1195.0,0.780026
1200.0,0.774565
1205.0,0.770987
1210.0,0.761115
1215.0,0.757428
1220.0,0.751346
1225.0,0.744371
1230.0,0.737331
1235.0,0.732345
1240.0,0.727518
1245.0,0.724131
1250.0,0.716938
1255.0,0.715027
1260.0,0.710356
1265.0,0.707857
1270.0,0.707552
1275.0,0.706393
1280.0,0.705689
1285.0,0.710046
1290.0,0.709479
1295.0,0.710006
1300.0,0.712806
1305.0,0.714479
1310.0,0.716524
1315.0,0.717416
1320.0,0.717049
1325.0,0.719195
1330.0,0.718718
1335.0,0.719726
1340.0,0.717189
1345.0,0.717623
1350.0,0.713597
1355.0,0.71153
1360.0,0.710786
1365.0,0.712047
1370.0,0.708671
1375.0,0.708078
1380.0,0.704569
1385.0,0.705518
1390.0,0.702558
1395.0,0.697274
1400.0,0.694956
1405.0,0.691025
1410.0,0.68812
1415.0,0.680884
1420.0,0.676305
1425.0,0.666119
1430.0,0.656039
1435.0,0.643907
1440.0,0.629034
1445.0,0.608513
1450.0,0.590988
1455.0,0.571589
1460.0,0.553104
1465.0,0.532889
1470.0,0.514314
1475.0,0.496693
1480.0,0.481562
1485.0,0.465918
1490.0,0.4557
1495.0,0.443031
1500.0,0.436557
1505.0,0.432281
1510.0,0.427542
1515.0,0.423952
1520.0,0.420417
1525.0,0.41343
1530.0,0.405631
1535.0,0.398467
1540.0,0.390702
1545.0,0.382853
1550.0,0.374526
1555.0,0.367941
1560.0,0.360427
1565.0,0.357617
1570.0,0.35455
1575.0,0.3526
1580.0,0.351941
1585.0,0.353293
1590.0,0.355342
1595.0,0.358826
1600.0,0.362295
1605.0,0.365213
1610.0,0.369001
1615.0,0.372389
1620.0,0.376381
1625.0,0.379879
1630.0,0.384032
1635.0,0.388119
1640.0,0.391107
1645.0,0.395415
1650.0,0.400559
1655.0,0.403389
1660.0,0.40835
1665.0,0.414254
1670.0,0.421115
1675.0,0.424219
1680.0,0.429914
1685.0,0.433081
1690.0,0.437329
1695.0,0.441293
1700.0,0.445837
1705.0,0.449625
1710.0,0.453782
1715.0,0.4576
1720.0,0.460861
1725.0,0.464139
1730.0,0.467078
1735.0,0.468571
1740.0,0.469391
1745.0,0.469419
1750.0,0.469652
1755.0,0.468848
1760.0,0.468617
1765.0,0.466391
1770.0,0.466325
1775.0,0.464521
1780.0,0.4654
1785.0,0.465336
1790.0,0.465957
1795.0,0.466038
1800.0,0.466414
1805.0,0.467819
1810.0,0.467656
1815.0,0.469256
1820.0,0.468455
1825.0,0.469971
1830.0,0.469639
1835.0,0.469713
1840.0,0.467956
1845.0,0.468431
1850.0,0.465464
1855.0,0.461422
1860.0,0.458347
1865.0,0.452378
1870.0,0.443929
1875.0,0.439895
1880.0,0.430334
1885.0,0.417901
1890.0,0.404269
1895.0,0.389724
1900.0,0.373823
1905.0,0.359913
1910.0,0.345366
1915.0,0.32859
1920.0,0.313083
1925.0,0.296646
1930.0,0.280249
1935.0,0.265043
1940.0,0.249971
1945.0,0.23464
1950.0,0.219799
1955.0,0.205387
1960.0,0.191541
1965.0,0.179838
1970.0,0.169304
1975.0,0.160636
1980.0,0.153751
1985.0,0.147282
1990.0,0.142394
1995.0,0.137294
2000.0,0.132372
2005.0,0.127379
2010.0,0.122989
2015.0,0.118954
2020.0,0.116518
2025.0,0.113299
2030.0,0.111008
2035.0,0.109203
2040.0,0.108087
2045.0,0.107735
2050.0,0.108116
2055.0,0.108761
2060.0,0.110241
2065.0,0.111263
2070.0,0.112305
2075.0,0.113401
2080.0,0.113506
2085.0,0.113075
2090.0,0.111755
2095.0,0.109844
2100.0,0.107205
2105.0,0.104469
2110.0,0.101559
2115.0,0.098246
2120.0,0.095093
2125.0,0.092728
2130.0,0.090545
2135.0,0.088758
2140.0,0.08753
2145.0,0.086244
2150.0,0.085623
2155.0,0.085402
2160.0,0.085113
2165.0,0.084481
2170.0,0.086687
2175.0,0.088928
2180.0,0.091884
2185.0,0.096277
2190.0,0.101414
2195.0,0.107039
2200.0,0.112961
2205.0,0.11871
2210.0,0.12326
2215.0,0.127924
2220.0,0.132303
2225.0,0.137236
2230.0,0.1431
2235.0,0.148492
2240.0,0.154293
2245.0,0.160412
2250.0,0.165985
2255.0,0.171908
2260.0,0.178514
2265.0,0.184332
2270.0,0.190743
2275.0,0.195514
2280.0,0.199169
2285.0,0.201044
2290.0,0.201777
2295.0,0.201945
2300.0,0.201511
2305.0,0.202573
2310.0,0.202466
2315.0,0.203023
2320.0,0.203789
2325.0,0.203735
2330.0,0.203051
2335.0,0.202988
2340.0,0.202968
2345.0,0.201862
2350.0,0.201282
2355.0,0.198558
2360.0,0.196685
2365.0,0.193729
2370.0,0.190173
2375.0,0.186684
2380.0,0.182474
2385.0,0.178
2390.0,0.173642
2395.0,0.170072
2400.0,0.166278
2405.0,0.163356
2410.0,0.160269
2415.0,0.158877
2420.0,0.157325
2425.0,0.157982
2430.0,0.159786
2435.0,0.163263
2440.0,0.167436
2445.0,0.171426
2450.0,0.174687
2455.0,0.177614
2460.0,0.179249
2465.0,0.179807
2470.0,0.178928
2475.0,0.177147
2480.0,0.176401
2485.0,0.1734
2490.0,0.17091
2495.0,0.167313
2500.0,0.164405
2505.0,0.161039
2510.0,0.159051
2515.0,0.155903
2520.0,0.154638
2525.0,0.151873
2530.0,0.149438
2535.0,0.147534
2540.0,0.145919
2545.0,0.143153
2550.0,0.141614
2555.0,0.140951
2560.0,0.139198
2565.13,0.137959
2570.22,0.136188
2575.33,0.134877
2580.46,0.133777
2581.74,0.132946
2583.03,0.132682
2584.31,0.132348
2585.6,0.132128
2586.89,0.131846
2588.19,0.131284
2589.48,0.131299
2590.77,0.131027
2592.07,0.130444
2593.36,0.130058
2594.66,0.128894
2595.96,0.128674
2597.26,0.129283
2598.56,0.128883
2599.87,0.128053
2601.17,0.127478
2602.48,0.127012
2603.78,0.126643
2605.09,0.12587
2606.4,0.125218
2607.71,0.125427
2609.03,0.125555
2610.34,0.125178
2611.66,0.124629
2612.97,0.123943
2614.29,0.123057
2615.61,0.12254
2616.93,0.122237
2618.25,0.122189
2619.57,0.122033
2620.9,0.121086
2622.22,0.120718
2623.55,0.120374
2624.88,0.119594
2626.21,0.11859
2627.54,0.117893
2628.87,0.117863
2630.21,0.117301
2631.54,0.116715
2632.88,0.11649
2634.21,0.116005
2635.55,0.115568
2636.89,0.114937
2638.24,0.114424
2639.58,0.11426
2640.92,0.113816
2642.27,0.112806
2643.62,0.112013
2644.97,0.111446
2646.32,0.110789
2647.67,0.110413
2649.02,0.109788
2650.38,0.109127
2651.73,0.108657
2653.09,0.107703
2654.45,0.106745
2655.81,0.106173
2657.17,0.10575
2658.53,0.105235
2659.89,0.104344
2661.26,0.103664
2662.63,0.103129
2664.0,0.102366
2665.36,0.101325
2666.74,0.100439
2668.11,0.100023
2669.48,0.099442
2670.86,0.097795
2672.23,0.096995
2673.61,0.096621
2674.99,0.095157
2676.37,0.093606
2677.76,0.092614
2679.14,0.091887
2680.52,0.090933
2681.91,0.090502
2683.3,0.089646
2684.69,0.088484
2686.08,0.087536
2687.47,0.086678
2688.87,0.085865
2690.26,0.085064
2691.66,0.083986
2693.06,0.082776
2694.46,0.081556
2695.86,0.080785
2697.26,0.080156
2698.66,0.079207
2700.07,0.078021
2701.48,0.077102
2702.89,0.076526
2704.3,0.075634
2705.71,0.074268
2707.12,0.073363
2708.53,0.072504
2709.95,0.071481
2711.37,0.070407
2712.79,0.069477
2714.21,0.068784
2715.63,0.067947
2717.05,0.066841
2718.48,0.065903
2719.9,0.064779
2721.33,0.063527
2722.76,0.063031
2724.19,0.062062
2725.62,0.06105
2727.06,0.060505
2728.49,0.059534
2729.93,0.058461
2731.37,0.057179
2732.81,0.056029
2734.25,0.055142
2735.69,0.054161
2737.14,0.053187
2738.58,0.052296
2740.03,0.051316
2741.48,0.05029
2742.93,0.049584
2744.38,0.048641
2745.83,0.047389
2747.29,0.046422
2748.75,0.045469
2750.2,0.044602
2751.66,0.04373
2753.13,0.042899
2754.59,0.042245
2756.05,0.041123
2757.52,0.040238
2758.99,0.039295
2760.46,0.038216
2761.93,0.037434
2763.4,0.036952
2764.87,0.036494
2766.35,0.035623
2767.82,0.034701
2769.3,0.034073
2770.78,0.033421
2772.26,0.032661
2773.75,0.032117
2775.23,0.03148
2776.72,0.030788
2778.21,0.03028
2779.7,0.02973
2781.19,0.029179
2782.68,0.028738
2784.18,0.028215
2785.67,0.027723
2787.17,0.027203
2788.67,0.026617
2790.17,0.025821
2791.67,0.025404
2793.18,0.024971
2794.68,0.024358
2796.19,0.024015
2797.7,0.023669
2799.21,0.023348
2800.72,0.023093
2802.24,0.022722
2803.75,0.022366
2805.27,0.022039
2806.79,0.021771
2808.31,0.021515
2809.83,0.021239
2811.35,0.020986
2812.88,0.020547
2814.41,0.02019
2815.93,0.01983
2817.46,0.019614
2819.0,0.019452
2820.53,0.019343
2822.07,0.01911
2823.6,0.018796
2825.14,0.018441
2826.68,0.018249
2828.22,0.017975
2829.77,0.017678
2831.31,0.017412
2832.86,0.01715
2834.41,0.016931
2835.96,0.01689
2837.51,0.016866
2839.07,0.016766
2840.62,0.016507
2842.18,0.016193
2843.74,0.016077
2845.3,0.015998
2846.86,0.015858
2848.43,0.015732
2849.99,0.015437
2851.56,0.015216
2853.13,0.0152
2854.7,0.015211
2856.27,0.014964
2857.85,0.014566
2859.42,0.014617
2861.0,0.014648
2862.58,0.014585
2864.16,0.014396
2865.75,0.014159
2867.33,0.014096
2868.92,0.013835
2870.51,0.013639
2872.1,0.013651
2873.69,0.013472
2875.28,0.013491
2876.88,0.013426
2878.48,0.013198
2880.07,0.013154
2881.68,0.012816
2883.28,0.012776
2884.88,0.012946
2886.49,0.012952
2888.1,0.012825
2889.71,0.012801
2891.32,0.01275
2892.93,0.012406
2894.55,0.012135
2896.16,0.012213
2897.78,0.012282
2899.4,0.011946
2901.03,0.011625
2902.65,0.011645
2904.28,0.011754
2905.91,0.011653
2907.54,0.01157
2909.17,0.011502
2910.8,0.01167
2912.44,0.011645
2914.07,0.011187
2915.71,0.010951
2917.35,0.011044
2918.99,0.011129
2920.64,0.010943
2922.29,0.010896
2923.93,0.010906
2925.58,0.010684
2927.24,0.01049
2928.89,0.010456
2930.55,0.010477
2932.2,0.010568
2933.86,0.010631
2935.52,0.010392
2937.19,0.01022
2938.85,0.010022
2940.52,0.009903
2942.19,0.009956
2943.86,0.009899
2945.53,0.009958
2947.21,0.009944
2948.88,0.009861
2950.56,0.009738
2952.24,0.009539
2953.92,0.009429
2955.61,0.009551
2957.29,0.009719
2958.98,0.009578
2960.67,0.009434
2962.36,0.00913
2964.06,0.008992
2965.75,0.009115
2967.45,0.009139
2969.15,0.009118
2970.85,0.008976
2972.55,0.008989
2974.26,0.008849
2975.97,0.008758
2977.68,0.008821
2979.39,0.008731
2981.1,0.008668
2982.82,0.008667
2984.53,0.008635
2986.25,0.008567
2987.97,0.008425
2989.7,0.008206
2991.42,0.008309
2993.15,0.008452
2994.88,0.008372
2996.61,0.008222
2998.34,0.008168
3000.08,0.008135
3001.82,0.00826
3003.55,0.008347
3005.3,0.008214
3007.04,0.008102
3008.78,0.008211
3010.53,0.008176
3012.28,0.007873
3014.03,0.007691
3015.79,0.007866
3017.54,0.007913
3019.3,0.00801
3021.06,0.008194
3022.82,0.008147
3024.58,0.007978
3026.35,0.007983
3028.12,0.008351
3029.89,0.008464
3031.66,0.008342
3033.43,0.008246
3035.21,0.008462
3036.99,0.008558
3038.77,0.008392
3040.55,0.008425
3042.33,0.00833
3044.12,0.008244
3045.91,0.008426
3047.7,0.008534
3049.49,0.008648
3051.29,0.008741
3053.08,0.008921
3054.88,0.00907
3056.68,0.009086
3058.49,0.009228
3060.29,0.009509
3062.1,0.009437
3063.91,0.009264
3065.72,0.009316
3067.54,0.009377
3069.35,0.009463
3071.17,0.009646
3072.99,0.009774
3074.81,0.009813
3076.64,0.009902
3078.47,0.010024
3080.29,0.010213
3082.13,0.010336
3083.96,0.010374
3085.79,0.010366
3087.63,0.010395
3089.47,0.01049
3091.31,0.010475
3093.16,0.010621
3095.01,0.010746
3096.85,0.010742
3098.71,0.010799
3100.56,0.010871
3102.41,0.010952
3104.27,0.01096
3106.13,0.011043
3107.99,0.011167
3109.86,0.011326
3111.73,0.011348
3113.59,0.011321
3115.47,0.011402
3117.34,0.011564
3119.21,0.0115
3121.09,0.011471
3122.97,0.011593
3124.86,0.011772
3126.74,0.011855
3128.63,0.011924
3130.52,0.012023
3132.41,0.011989
3134.3,0.01189
3136.2,0.011729
3138.1,0.011819
3140.0,0.01196
3141.9,0.012003
3143.81,0.012159
3145.71,0.012276
3147.62,0.012196
3149.54,0.012082
3151.45,0.012017
3153.37,0.012054
3155.29,0.012217
3157.21,0.012379
3159.13,0.012285
3161.06,0.012103
3162.99,0.012328
3164.92,0.012553
3166.85,0.012401
3168.79,0.012372
3170.72,0.012317
3172.67,0.012232
3174.61,0.012331
3176.55,0.012417
3178.5,0.012412
3180.45,0.012474
3182.4,0.012502
3184.36,0.012502
3186.32,0.012454
3188.27,0.012451
3190.24,0.012515
3192.2,0.012486
3194.17,0.012457
3196.14,0.012574
3198.11,0.012632
3200.08,0.012556
3202.06,0.012425
3204.04,0.012538
3206.02,0.012712
3208.0,0.012708
3209.99,0.012632
3211.98,0.012524
3213.97,0.012404
3215.96,0.012373
3217.96,0.012448
3219.96,0.012495
3221.96,0.012622
3223.96,0.012677
3225.97,0.012513
3227.98,0.01246
3229.99,0.01254
3232.0,0.012635
3234.02,0.012639
3236.04,0.01261
3238.06,0.012689
3240.08,0.012674
3242.11,0.012601
3244.14,0.012573
3246.17,0.012511
3248.2,0.012456
3250.24,0.012517
3252.28,0.012686
3254.32,0.012778
3256.37,0.012781
3258.41,0.012775
3260.46,0.012847
3262.51,0.012871
3264.57,0.012957
3266.63,0.013034
3268.69,0.013096
3270.75,0.013104
3272.81,0.01315
3274.88,0.013204
3276.95,0.013303
3279.02,0.013276
3281.1,0.013354
3283.18,0.013574
3285.26,0.013567
3287.34,0.01355
3289.43,0.013547
3291.51,0.013479
3293.61,0.01352
3295.7,0.013593
3297.8,0.013681
3299.9,0.013816
3302.0,0.013907
3304.1,0.013837
3306.21,0.013927
3308.32,0.014103
3310.43,0.014041
3312.55,0.013893
3314.66,0.013954
3316.79,0.014138
3318.91,0.014155
3321.03,0.014163
3323.16,0.014226
3325.29,0.014239
3327.43,0.014302
3329.57,0.014435
3331.71,0.014595
3333.85,0.014715
3335.99,0.014834
3338.14,0.014848
3340.29,0.014943
3342.45,0.014826
3344.6,0.014621
3346.76,0.01468
3348.92,0.014797
3351.09,0.014884
3353.26,0.014997
3355.43,0.014994
3357.6,0.014979
3359.78,0.015016
3361.96,0.015002
3364.14,0.014986
3366.32,0.015057
3368.51,0.015146
3370.7,0.015149
3372.89,0.015193
3375.09,0.015256
3377.29,0.015254
3379.49,0.015303
3381.69,0.015345
3383.9,0.015415
3386.11,0.015426
3388.32,0.015518
3390.54,0.015658
3392.76,0.015634
3394.98,0.015514
3397.21,0.015502
3399.43,0.01559
3401.66,0.015536
3403.9,0.01547
3406.13,0.015526
3408.37,0.015587
3410.61,0.015705
3412.86,0.01577
3415.11,0.01571
3417.36,0.015726
3419.61,0.015774
3421.87,0.015785
3424.13,0.015812
3426.39,0.015844
3428.66,0.015799
3430.93,0.01581
3433.2,0.015757
3435.48,0.01569
3437.76,0.015596
3440.04,0.015633
3442.32,0.015674
3444.61,0.015639
3446.9,0.015781
3449.19,0.015773
3451.49,0.015758
3453.79,0.015882
3456.09,0.015901
3458.4,0.015794
3460.7,0.01573
3463.02,0.015774
3465.33,0.015864
3467.65,0.015896
3469.97,0.015854
3472.29,0.015806
3474.62,0.015849
3476.95,0.015924
3479.29,0.015918
3481.62,0.015884
3483.96,0.016006
3486.3,0.016083
3488.65,0.016011
3491.0,0.016012
3493.35,0.016019
3495.71,0.016067
3498.07,0.016212
3500.43,0.016286
3502.79,0.0162
3505.16,0.016225
3507.53,0.016251
3509.91,0.016339
3512.29,0.016405
3514.67,0.01634
3517.05,0.016341
3519.44,0.016447
3521.83,0.016537
3524.23,0.016572
3526.62,0.016608
3529.02,0.016605
3531.43,0.0167
3533.83,0.01691
3536.24,0.016926
3538.66,0.016901
3541.08,0.016911
3543.5,0.016993
3545.92,0.017169
3548.35,0.017208
3550.78,0.017262
3553.21,0.017496
3555.65,0.017634
3558.09,0.017545
3560.53,0.017541
3562.98,0.017762
3565.43,0.017861
3567.88,0.017848
3570.34,0.017935
3572.8,0.018027
3575.27,0.018059
3577.73,0.018106
3580.2,0.018157
3582.68,0.018281
3585.16,0.018364
3587.64,0.018396
3590.12,0.018403
3592.61,0.018522
3595.1,0.018672
3597.6,0.018776
3600.09,0.01875
3602.6,0.018773
3605.1,0.018943
3607.61,0.019038
3610.12,0.019094
3612.64,0.019129
3615.16,0.019236
3617.68,0.019373
3620.21,0.019459
3622.74,0.019562
3625.27,0.019645
3627.81,0.019643
3630.35,0.019686
3632.89,0.019772
3635.44,0.019928
3637.99,0.020018
3640.54,0.019983
3643.1,0.019992
3645.66,0.020147
3648.23,0.020298
3650.8,0.020371
3653.37,0.020471
3655.95,0.020606
3658.53,0.020675
3661.11,0.020681
3663.7,0.02076
3666.29,0.0209
3668.89,0.021009
3671.48,0.021043
3674.09,0.021123
3676.69,0.02119
3679.3,0.0212
3681.91,0.021316
3684.53,0.021415
3687.15,0.021457
3689.78,0.021607
3692.4,0.021697
3695.04,0.021766
3697.67,0.021824
3700.31,0.021984
3702.95,0.022073
3705.6,0.022081
3708.25,0.0222
3710.91,0.0224
3713.56,0.022552
3716.23,0.022564
3718.89,0.022578
3721.56,0.022652
3724.23,0.022777
3726.91,0.02286
3729.59,0.02291
3732.28,0.02312
3734.97,0.023302
3737.66,0.023351
3740.36,0.023459
3743.06,0.023611
3745.76,0.023767
3748.47,0.023876
3751.18,0.023933
3753.9,0.023925
3756.62,0.02395
3759.34,0.024085
3762.07,0.024192
3764.8,0.024349
3767.54,0.024455
3770.28,0.024461
3773.02,0.024587
3775.77,0.02479
3778.52,0.024853
3781.28,0.024894
3784.04,0.024978
3786.8,0.025037
3789.57,0.025234
3792.34,0.025448
3795.12,0.025584
3797.9,0.025665
3800.69,0.02582
3803.47,0.025927
3806.27,0.025989
3809.06,0.02614
3811.86,0.02621
3814.67,0.026239
3817.48,0.026443
3820.29,0.026619
3823.11,0.026686
3825.93,0.026746
3828.76,0.026838
3831.59,0.02698
3834.42,0.027141
3837.26,0.027317
3840.1,0.027391
3842.95,0.027484
3845.8,0.027584
3848.65,0.027755
3851.51,0.027905
3854.38,0.028015
3857.24,0.028148
3860.12,0.028279
3862.99,0.028465
3865.87,0.028638
3868.76,0.028746
3871.65,0.028767
3874.54,0.028773
3877.44,0.028854
3880.34,0.029063
3883.25,0.029203
3886.16,0.02937
3889.07,0.029478
3891.99,0.029531
3894.92,0.029646
3897.85,0.029809
3900.78,0.029953
3903.72,0.030061
3906.66,0.030225
3909.6,0.030226
3912.55,0.030228
3915.51,0.030422
3918.47,0.030681
3921.43,0.030776
3924.4,0.030878
3927.38,0.03102
3930.35,0.031092
3933.33,0.031121
3936.32,0.031128
3939.31,0.031292
3942.31,0.031473
3945.31,0.031556
3948.31,0.031666
3951.32,0.03182
3954.34,0.031949
3957.35,0.032021
3960.38,0.032054
3963.41,0.032144
3966.44,0.03232
3969.48,0.032473
3972.52,0.032572
3975.56,0.032662
3978.61,0.032824
3981.67,0.032977
3984.73,0.033051
3987.8,0.03309
3990.87,0.033237
3993.94,0.033292
3997.02,0.033327
4000.1,0.03349
4003.19,0.033587
4006.29,0.033759
4009.39,0.033993
4012.49,0.034088
4015.6,0.034162
4018.71,0.03426
4021.83,0.034325
4024.95,0.034321
4028.08,0.034374
4031.21,0.034489
4034.35,0.034659
4037.49,0.034846
4040.64,0.034962
4043.79,0.034978
4046.94,0.035016
4050.11,0.035159
4053.27,0.035346
4056.44,0.035434
4059.62,0.035429
4062.8,0.035478
4065.99,0.035571
4069.18,0.035692
4072.38,0.035799
4075.58,0.035804
4078.78,0.035935
4082.0,0.036126
4085.21,0.036176
4088.43,0.036273
4091.66,0.036422
4094.89,0.03649
4098.13,0.036473
4101.37,0.036466
4104.62,0.036577
4107.87,0.036785
4111.13,0.036896
4114.39,0.036971
4117.66,0.037013
4120.93,0.037065
4124.21,0.037196
4127.5,0.037293
4130.79,0.037284
4134.08,0.037338
4137.38,0.03742
4140.68,0.037447
4143.99,0.037554
4147.31,0.03759
4150.63,0.037582
4153.95,0.03765
4157.29,0.037724
4160.62,0.037837
4163.96,0.037939
4167.31,0.038002
4170.66,0.038074
4174.02,0.038114
4177.39,0.038092
4180.75,0.038092
4184.13,0.03815
4187.51,0.038226
4190.89,0.038284
4194.28,0.038313
4197.68,0.038338
4201.08,0.038299
4204.49,0.038276
4207.9,0.038334
4211.32,0.038313
4214.74,0.03831
4218.17,0.038307
4221.61,0.038275
4225.05,0.038267
4228.5,0.038306
4231.95,0.038255
4235.4,0.038229
4238.87,0.038195
4242.34,0.038122
4245.81,0.03817
4249.29,0.038214
4252.78,0.038066
4256.27,0.038032
4259.77,0.038112
4263.27,0.038139
4266.78,0.038029
4270.29,0.037897
4273.81,0.037847
4277.34,0.037852
4280.87,0.037801
4284.41,0.037763
4287.95,0.037643
4291.5,0.037516
4295.06,0.037513
4298.62,0.037499
4302.19,0.037413
4305.76,0.03737
4309.34,0.03729
4312.92,0.0372
4316.52,0.037164
4320.11,0.03704
4323.72,0.036959
4327.32,0.036895
4330.94,0.036806
4334.56,0.036701
4338.19,0.036581
4341.82,0.036612
4345.46,0.036646
4349.11,0.036542
4352.76,0.036411
4356.42,0.036329
4360.08,0.036247
4363.75,0.036105
4367.43,0.035942
4371.11,0.03582
4374.8,0.035771
4378.49,0.035736
4382.19,0.035666
4385.9,0.035549
4389.61,0.035409
4393.33,0.035355
4397.06,0.035284
4400.79,0.035132
4404.53,0.03501
4408.28,0.035005
4412.03,0.034882
4415.79,0.0347
4419.55,0.034621
4423.32,0.034611
4427.1,0.03446
4430.88,0.034279
4434.68,0.034183
4438.47,0.03418
4442.28,0.034074
4446.08,0.033941
4449.9,0.033833
4453.72,0.033758
4457.55,0.033633
4461.39,0.033476
4465.23,0.033319
4469.08,0.033207
4472.94,0.033158
4476.8,0.033114
4480.67,0.033014
4484.55,0.032867
4488.43,0.032769
4492.32,0.032667
4496.21,0.032516
4500.12,0.032441
4504.03,0.032353
4507.94,0.032258
4511.87,0.032217
4515.8,0.032108
4519.73,0.032009
4523.68,0.031953
4527.63,0.031905
4531.59,0.031839
4535.55,0.031755
4539.52,0.031711
4543.5,0.031645
4547.49,0.031556
4551.48,0.031472
4555.48,0.031419
4559.49,0.031298
4563.5,0.031218
4567.52,0.031275
4571.55,0.031305
4575.58,0.031167
4579.63,0.031031
4583.67,0.030985
4587.73,0.030868
4591.79,0.030786
4595.86,0.030705
4599.94,0.030646
4604.03,0.030574
4608.12,0.030459
4612.22,0.030386
4616.33,0.030326
4620.44,0.030221
4624.56,0.03012
4628.69,0.030081
4632.83,0.029998
4636.97,0.02988
4641.12,0.029786
4645.28,0.029719
4649.45,0.029605
4653.62,0.029431
4657.8,0.029287
4661.99,0.029204
4666.19,0.029208
4670.39,0.029094
4674.6,0.028895
4678.82,0.028756
4683.05,0.028626
4687.28,0.028557
4691.52,0.028513
4695.77,0.028414
4700.03,0.028356
4704.3,0.02822
4708.57,0.027984
4712.85,0.027834
4717.14,0.027661
4721.43,0.027545
4725.74,0.02747
4730.05,0.027309
4734.37,0.027217
4738.7,0.027189
4743.03,0.027072
4747.38,0.026896
4751.73,0.026834
4756.09,0.026842
4760.45,0.026825
4764.83,0.026734
4769.21,0.026594
4773.6,0.026538
4778.0,0.026477
4782.41,0.026336
4786.83,0.026256
4791.25,0.026294
4795.68,0.026209
4800.13,0.026113
4804.57,0.026021
4809.03,0.025974
4813.5,0.025963
4817.97,0.02587
4822.45,0.025788
4826.94,0.025762
4831.44,0.025665
4835.95,0.025634
4840.46,0.025601
4844.99,0.025571
4849.52,0.025559
4854.06,0.025455
4858.61,0.025408
4863.17,0.025393
4867.73,0.025389
4872.31,0.025342
4876.89,0.025234
4881.48,0.025176
4886.08,0.025128
4890.69,0.025247
4895.31,0.025381
4899.94,0.025375
4904.57,0.025416
4909.22,0.025511
4913.87,0.025584
4918.53,0.025707
4923.21,0.025808
4927.88,0.02577
4932.57,0.025773
4937.27,0.025862
4941.98,0.025924
4946.69,0.025942
4951.42,0.026018
4956.15,0.026096
4960.9,0.026114
4965.65,0.026139
4970.41,0.026208
4975.18,0.026212
4979.96,0.026211
4984.75,0.026229
4989.54,0.026272
4994.35,0.026328
4999.17,0.026351
5003.99,0.026377
5008.83,0.026416
5013.67,0.026402
5018.52,0.026409
5023.39,0.026459
5028.26,0.026456
5033.14,0.026386
5038.03,0.026366
5042.93,0.026405
5047.84,0.026495
5052.76,0.02651
5057.69,0.026531
5062.63,0.026581
5067.58,0.026574
5072.54,0.026595
5077.51,0.026566
5082.49,0.026477
5087.47,0.026529
5092.47,0.026563
5097.48,0.026509
5102.5,0.026508
5107.52,0.026591
5112.56,0.026623
5117.61,0.026612
5122.66,0.026545
5127.73,0.026462
5132.81,0.026448
5137.89,0.026459
5142.99,0.026398
5148.1,0.026345
5153.22,0.026272
5158.34,0.026308
5163.48,0.026298
5168.63,0.026198
5173.79,0.026127
5178.96,0.0261
5184.13,0.026037
5189.32,0.026021
5194.52,0.025984
5199.73,0.025863
5204.96,0.025748
5210.19,0.025668
5215.43,0.025563
5220.68,0.025454
5225.94,0.025426
5231.22,0.025359
5236.5,0.025258
5241.79,0.025166
5247.1,0.025016
5252.42,0.02492
5257.74,0.024792
5263.08,0.024684
5268.43,0.024541
5273.79,0.024459
5279.16,0.024377
5284.54,0.024189
5289.93,0.024006
5295.34,0.023926
5300.75,0.02378
5306.18,0.023635
5311.61,0.023583
5317.06,0.023491
5322.52,0.023312
5327.99,0.023163
5333.47,0.022996
5338.96,0.02281
5344.47,0.022745
5349.98,0.022665
5355.51,0.02244
5361.05,0.022258
5366.6,0.022148
5372.16,0.022088
5377.73,0.021993
5383.32,0.021854
5388.91,0.021698
5394.52,0.02164
5400.14,0.021592
5405.77,0.021432
5411.41,0.021271
5417.07,0.021182
5422.74,0.021077
5428.41,0.020929
5434.1,0.020804
5439.81,0.020761
5445.52,0.020672
5451.25,0.020536
5456.98,0.020397
5462.73,0.020312
5468.5,0.020248
5474.27,0.020122
5480.06,0.02001
5485.86,0.019985
5491.67,0.019933
5497.49,0.019785
5503.33,0.019633
5509.18,0.019589
5515.04,0.019578
5520.91,0.019424
5526.8,0.019236
5532.69,0.019183
5538.61,0.019165
5544.53,0.019066
5550.47,0.01897
5556.41,0.018872
5562.38,0.018813
5568.35,0.018769
5574.34,0.01867
5580.34,0.018531
5586.35,0.0184
5592.38,0.01835
5598.42,0.018346
5604.47,0.018273
5610.54,0.018176
5616.61,0.018079
5622.71,0.018038
5628.81,0.018015
5634.93,0.017955
5641.06,0.017834
5647.21,0.017739
5653.36,0.017634
5659.54,0.017597
5665.72,0.017579
5671.92,0.017531
5678.13,0.017453
5684.36,0.017343
5690.6,0.017307
5696.85,0.017256
5703.12,0.017153
5709.4,0.017099
5715.69,0.016992
5722.0,0.01697
5728.33,0.016936
5734.66,0.016827
5741.01,0.016748
5747.38,0.01665
5753.76,0.016506
5760.15,0.016359
5766.56,0.01629
5772.98,0.016249
5779.41,0.016171
5785.86,0.016038
5792.33,0.015891
5798.81,0.015787
5805.3,0.015693
5811.81,0.015526
5818.33,0.015446
5824.87,0.015349
5831.42,0.01517
5837.99,0.014987
5844.57,0.014898
5851.17,0.0148
5857.78,0.014665
5864.41,0.014618
5871.05,0.014565
5877.7,0.014443
5884.38,0.014372
5891.06,0.014285
5897.76,0.014209
5904.48,0.014109
5911.21,0.014068
5917.96,0.014129
5924.73,0.014105
5931.5,0.014051
5938.3,0.013984
5945.11,0.013957
5951.93,0.014
5958.78,0.013972
5965.63,0.013914
5972.51,0.013962
5979.39,0.014043
5986.3,0.014066
5993.22,0.014019
6000.16,0.014021
6007.11,0.014068
6014.08,0.014086
6021.06,0.01408
6028.06,0.014138
6035.08,0.014212
6042.12,0.01426
6049.17,0.014277
6056.23,0.014225
6063.32,0.014172
6070.42,0.014244
6077.53,0.014289
6084.67,0.014345
6091.82,0.014343
6098.98,0.014281
6106.17,0.014344
6113.37,0.014492
6120.58,0.014454
6127.82,0.014381
6135.07,0.014518
6142.34,0.014623
6149.63,0.014626
6156.93,0.014557
6164.25,0.014519
6171.59,0.014589
6178.95,0.014702
6186.32,0.014674
6193.71,0.014655
6201.12,0.014767
6208.54,0.014805
6215.99,0.014733
6223.45,0.014685
6230.93,0.01464
6238.43,0.0146
6245.95,0.014603
6253.48,0.014628
6261.03,0.014657
6268.6,0.014642
6276.19,0.014595
6283.8,0.014545
6291.43,0.014437
6299.07,0.01437
6306.73,0.014367
6314.42,0.01436
6322.12,0.014341
6329.84,0.014292
6337.57,0.014174
6345.33,0.01411
6353.11,0.014006
6360.9,0.013888
6368.72,0.01386
6376.55,0.013825
6384.4,0.013748
6392.27,0.013608
6400.17,0.01344
6408.08,0.013291
6416.01,0.013141
6423.96,0.01295
6431.93,0.012816
6439.92,0.012722
6447.93,0.012619
6455.96,0.012491
6464.01,0.012333
6472.08,0.012182
6480.17,0.012029
6488.28,0.011861
6496.41,0.011649
6504.56,0.011435
6512.73,0.011257
6520.92,0.011098
6529.14,0.010874
6537.37,0.010688
6545.63,0.010565
6553.9,0.01035
6562.2,0.010125
6570.51,0.009991
6578.85,0.009777
6587.21,0.009543
6595.59,0.009296
6603.99,0.009021
6612.42,0.00873
6620.86,0.008439
6629.33,0.008255
6637.82,0.008184
6646.33,0.007995
6654.86,0.007723
6663.41,0.007532
6671.99,0.007276
6680.59,0.007066
6689.21,0.006906
6697.85,0.006704
6706.51,0.006577
6715.2,0.00651
6723.91,0.00648
6732.64,0.006526
6741.4,0.006576
6750.18,0.006637
6758.98,0.006856
6767.8,0.00713
6776.65,0.007407
6785.52,0.007715
6794.41,0.008008
6803.33,0.008333
6812.27,0.00878
6821.23,0.009251
6830.22,0.009676
6839.23,0.010206
6848.26,0.010786
6857.32,0.011319
6866.4,0.011813
6875.51,0.012374
6884.64,0.012886
6893.8,0.013469
6902.98,0.014091
6912.18,0.01465
6921.41,0.015206
6930.66,0.015876
6939.94,0.016558
6949.24,0.017239
6958.57,0.017889
6967.92,0.018524
6977.3,0.019114
6986.7,0.01963
6996.13,0.020039
7005.59,0.020425
7015.07,0.020738
7024.57,0.02097
7034.1,0.021164
7043.66,0.021394
7053.25,0.021433
7062.85,0.021437
7072.49,0.021436
7082.15,0.021365
7091.84,0.021173
7101.55,0.020969
7111.3,0.020748
7121.06,0.02054
7130.86,0.020305
7140.68,0.020026
7150.53,0.019684
7160.41,0.019433
7170.31,0.019272
7180.24,0.01901
7190.2,0.018782
7200.19,0.01854
7210.2,0.018265
7220.24,0.018009
7230.31,0.017903
7240.41,0.017849
7250.54,0.017731
7260.69,0.017579
7270.88,0.01743
7281.09,0.017279
7291.33,0.017143
7301.6,0.016962
7311.9,0.016874
7322.22,0.016821
7332.58,0.01676
7342.97,0.016693
7353.38,0.016548
7363.83,0.016405
7374.3,0.016337
7384.81,0.01627
7395.34,0.016209
7405.91,0.01611
7416.5,0.016025
7427.13,0.016003
7437.78,0.015929
7448.47,0.015797
7459.19,0.015732
7469.94,0.015678
7480.71,0.015597
7491.52,0.015482
7502.37,0.015393
7513.24,0.015337
7524.14,0.015273
7535.08,0.015157
7546.05,0.015042
7557.05,0.014937
7568.08,0.014828
7579.15,0.014715
7590.24,0.014655
7601.37,0.01452
7612.53,0.014353
7623.73,0.01419
7634.96,0.014094
7646.22,0.014049
7657.51,0.014031
7668.84,0.013933
7680.2,0.013784
7691.59,0.013736
7703.02,0.013691
7714.49,0.013569
7725.98,0.01355
7737.52,0.013503
7749.08,0.013314
7760.68,0.013145
7772.32,0.01303
7783.99,0.012934
7795.69,0.012879
7807.43,0.012781
7819.21,0.01269
7831.02,0.012599
7842.87,0.012532
7854.75,0.012465
7866.67,0.012369
7878.62,0.012299
7890.62,0.012174
7902.64,0.01207
7914.71,0.012013
7926.81,0.011916
7938.95,0.011813
7951.13,0.011813
7963.34,0.01181
7975.59,0.011725
7987.88,0.01174
8000.21,0.011848
8012.57,0.011915
8024.98,0.012035
8037.42,0.012324
8049.9,0.012605
8062.42,0.012856
8074.98,0.013244
8087.57,0.013665
8100.21,0.014067
8112.89,0.014557
8125.6,0.01516
8138.36,0.015743
8151.16,0.016243
8163.99,0.016781
8176.87,0.017397
8189.79,0.018042
8202.75,0.018628
8215.75,0.019115
8228.79,0.019654
8241.87,0.020152
8254.99,0.020641
8268.16,0.021144
8281.37,0.021597
8294.62,0.022039
8307.91,0.022473
8321.24,0.022962
8334.62,0.023394
8348.04,0.023789
8361.51,0.024248
8375.02,0.024734
8388.57,0.025248
8402.16,0.025816
8415.8,0.026435
8429.49,0.027075
8443.22,0.027793
8456.99,0.028564
8470.81,0.029351
8484.67,0.030182
8498.58,0.031039
8512.54,0.031977
8526.54,0.032965
8540.58,0.034014
8554.68,0.034988
8568.82,0.035951
8583.0,0.037019
8597.24,0.038068
8611.52,0.03906
8625.85,0.039973
8640.23,0.040877
8654.65,0.041743
8669.12,0.0424
8683.64,0.042906
8698.21,0.043428
8712.83,0.043921
8727.5,0.044396
8742.22,0.044803
8756.99,0.04521
8771.8,0.045515
8786.67,0.045719
8801.59,0.04601
8816.56,0.046412
8831.58,0.046651
8846.65,0.04682
8861.77,0.046991
8876.94,0.04726
8892.17,0.047428
8907.45,0.04751
8922.78,0.047643
8938.16,0.047833
8953.6,0.047962
8969.09,0.048001
8984.64,0.048057
9000.23,0.048072
9015.89,0.047981
9031.59,0.047868
9047.36,0.04767
9063.17,0.04753
9079.05,0.047333
9094.97,0.047041
9110.96,0.046659
9127.0,0.046302
9143.1,0.046014
9159.25,0.045682
9175.46,0.045314
9191.73,0.044911
9208.06,0.044554
9224.44,0.044037
9240.88,0.043539
9257.38,0.043122
9273.94,0.042531
9290.56,0.04187
9307.24,0.041206
9323.98,0.040468
9340.78,0.039752
9357.64,0.039128
9374.57,0.038507
9391.55,0.037822
9408.59,0.037203
9425.7,0.03664
9442.87,0.036183
9460.1,0.035672
9477.4,0.03508
9494.75,0.034653
9512.17,0.034227
9529.66,0.033836
9547.21,0.033521
9564.83,0.033197
9582.5,0.032864
9600.25,0.032524
9618.06,0.032127
9635.94,0.031682
9653.88,0.031287
9671.89,0.030927
9689.97,0.030602
9708.12,0.030308
9726.33,0.03016
9744.62,0.029933
9762.97,0.029549
9781.39,0.029328
9799.88,0.029205
9818.44,0.029021
9837.07,0.028805
9855.77,0.028602
9874.54,0.02843
9893.39,0.028145
9912.3,0.027936
9931.29,0.02786
9950.36,0.027719
9969.49,0.027495
9988.7,0.027331
10007.98,0.027214
10027.34,0.027072
10046.77,0.026993
10066.28,0.026959
10085.87,0.026786
10105.53,0.026518
10125.26,0.026377
10145.08,0.026257
10164.97,0.02601
10184.94,0.025703
10204.99,0.025699
10225.12,0.025896
10245.33,0.026024
10265.61,0.026081
10285.98,0.026111
10306.43,0.026133
10326.96,0.02609
10347.57,0.026195
10368.27,0.026338
10389.05,0.026442
10409.91,0.026501
10430.86,0.026494
10451.88,0.026488
10473.0,0.026572
10494.2,0.026775
10515.49,0.027003
10536.86,0.027148
10558.32,0.027231
10579.87,0.027225
10601.5,0.027197
10623.23,0.027215
10645.04,0.027243
10666.94,0.027209
10688.94,0.027225
10711.02,0.027293
10733.2,0.02734
10755.47,0.027331
10777.83,0.027261
10800.28,0.027174
10822.83,0.027117
10845.47,0.027042
10868.21,0.027032
10891.04,0.026885
10913.97,0.026736
10936.99,0.026784
10960.12,0.026694
10983.34,0.026532
11006.66,0.02641
11030.07,0.026213
11053.59,0.026116
11077.21,0.026074
11100.93,0.025885
11124.75,0.025744
11148.68,0.025686
11172.71,0.025642
11196.84,0.02555
11221.07,0.025459
11245.41,0.025334
11269.86,0.025168
11294.41,0.025062
11319.07,0.025144
11343.84,0.025074
11368.72,0.024944
11393.7,0.024842
11418.8,0.024797
11444.01,0.024773
11469.33,0.024697
11494.76,0.024567
11520.3,0.024577
11545.96,0.02476
11571.73,0.024671
11597.62,0.024507
11623.62,0.024573
11649.74,0.024528
11675.98,0.024372
11702.34,0.02435
11728.81,0.024215
11755.41,0.024146
11782.13,0.024252
11808.96,0.024371
11835.92,0.024446
11863.01,0.024261
11890.22,0.02402
11917.55,0.023971
11945.01,0.024022
11972.6,0.024009
12000.31,0.024027
12028.16,0.024048
12056.13,0.02395
12084.23,0.023704
12112.46,0.023561
12140.83,0.023599
12169.33,0.023641
12197.96,0.023524
12226.73,0.023566
12255.64,0.02366
12284.68,0.023558
12313.86,0.02347
12343.18,0.023419
12372.64,0.023308
12402.24,0.023106
12431.98,0.023021
12461.86,0.023014
12491.89,0.022962
12522.07,0.022972
12552.38,0.023044
12582.85,0.022972
12613.47,0.022899
12644.23,0.022867
12675.15,0.022773
12706.21,0.022612
12737.43,0.022544
12768.81,0.022442
12800.33,0.022341
12832.02,0.02237
12863.86,0.022381
12895.86,0.022379
12928.02,0.022344
12960.34,0.022243
12992.82,0.022086
13025.46,0.022021
13058.27,0.02191
13091.25,0.021808
13124.39,0.021758
13157.7,0.02172
13191.18,0.021768
13224.83,0.021719
13258.66,0.021597
13292.65,0.021553
13326.83,0.021367
13361.17,0.021133
13395.7,0.021072
13430.4,0.021105
13465.29,0.021148
13500.35,0.021153
13535.6,0.021112
13571.03,0.021046
13606.65,0.020874
13642.46,0.020682
13678.46,0.020571
13714.64,0.020423
13751.02,0.020366
13787.59,0.02029
13824.36,0.02023
13861.32,0.020175
13898.49,0.020156
13935.85,0.019986
13973.41,0.019742
14011.17,0.019571
14049.15,0.019366
14087.32,0.019188
14125.71,0.019076
14164.3,0.018978
14203.11,0.018775
14242.13,0.018538
14281.36,0.018332
14320.81,0.018141
14360.49,0.017866
14400.38,0.017679
14440.49,0.017484
14480.82,0.017129
14521.39,0.016994
14562.18,0.016966
14603.2,0.016696
14644.45,0.016429
14685.93,0.016202
14727.66,0.015931
14769.62,0.015756
14811.81,0.015729
14854.25,0.015768
14896.94,0.015952
14939.87,0.015955
14983.05,0.015925
15026.48,0.015997
15070.16,0.016003
15114.1,0.01601
15158.29,0.016112
15202.74,0.016425
15247.46,0.0165
15292.43,0.016385
15337.68,0.016185
15383.19,0.016088
15428.97,0.016099
15475.03,0.016169
15521.36,0.016052
15567.97,0.015839
15614.87,0.015697
15662.04,0.015505
15709.5,0.015469
15757.25,0.015748
15805.29,0.016274
15853.62,0.017214
15902.26,0.018628
15951.19,0.020454
16000.42,0.022713
16049.95,0.024917
16099.8,0.026387
16149.95,0.027106
16200.42,0.027708
16251.21,0.028269
16302.31,0.028518
16353.74,0.028635
16405.49,0.028189
16457.57,0.027158
16509.98,0.026332
16562.73,0.025836
16615.82,0.02538
16669.24,0.024947
16723.02,0.024437
16777.14,0.023958
16831.61,0.02348
16886.43,0.023155
16941.62,0.022777
16997.16,0.022465
17053.08,0.022309
17109.36,0.02204
17166.01,0.021793
17223.04,0.022039
17280.45,0.02227
17338.24,0.022251
17396.43,0.022186
17455.0,0.022182
17513.97,0.022179
17573.34,0.021953
17633.11,0.021877
17693.29,0.022019
17753.89,0.022117
17814.9,0.022289
17876.33,0.0222
17938.18,0.021908
18000.47,0.022056
18063.19,0.022371
18126.35,0.022317
18189.95,0.022058
18254.0,0.021866
18318.5,0.021928
18383.46,0.022017
18448.88,0.022233
18514.77,0.022217
18581.13,0.021698
18647.97,0.0215
18715.29,0.021699
18783.1,0.021993
18851.4,0.021857
18920.2,0.021432
18989.51,0.021329
19059.32,0.021476
19129.65,0.021471
19200.5,0.021452
19271.88,0.021279
19343.79,0.021072
19416.24,0.020744
19489.23,0.020446
19562.77,0.020549
19636.88,0.020722
19711.54,0.020771
19786.78,0.020512
19862.59,0.02013
19938.98,0.020466
20015.96,0.020958
20093.55,0.02119
20171.73,0.02149
20250.53,0.021487
20329.94,0.021513
20409.98,0.021626
20490.65,0.021255
20571.96,0.021273
20653.92,0.021993
20736.54,0.021983
20819.82,0.021694
20903.77,0.021849
20988.4,0.022164
21073.72,0.022187
21159.73,0.021568
21246.46,0.020806
21333.89,0.020727
21422.04,0.021232
21510.93,0.021213
21600.56,0.020836
21690.94,0.020573
21782.08,0.020487
21873.99,0.020825
21966.67,0.020875
22060.15,0.020436
22154.42,0.01997
22249.51,0.019654
22345.41,0.01965
22442.14,0.019789
22539.72,0.019934
22638.14,0.019593
22737.43,0.019027
22837.6,0.018841
22938.65,0.01903
23040.6,0.018655
23143.46,0.017568
23247.24,0.017388
23351.96,0.017826
23457.63,0.017782
23564.25,0.017792
23671.85,0.018043
23780.44,0.017731
23890.02,0.016932
24000.63,0.016588
24112.26,0.017275
24224.93,0.018118
24338.66,0.01814
24453.47,0.017937
24569.36,0.018678
24686.36,0.019958
24804.47,0.021007
24923.73,0.020347
25044.13,0.019813
25165.71,0.020945
25288.46,0.021521
25412.43,0.02117
25537.61,0.022322
25664.04,0.025233
25791.72,0.025093
25920.68,0.023862
