Database of Origin, USGS Spectral Database
Sample Description, See USGS database for additional info
Date Added,2016-08-03 21:02:13.154964

Data ID,USGS_ant04          
Sample ID, antigorite_nmnh96917.2797
Mineral Name, antigorite
Material Class,Phyllosilicate

Wavelength
229.1, 0.0603180
236.1, 0.0757770
242.1, 0.0637680
248.1, 0.0743290
253.6, 0.0701440
258.6, 0.0760930
263.6, 0.0735380
268.6, 0.0757590
273.1, 0.0881220
277.1, 0.0807980
281.1, 0.108485
285.1, 0.108870
289.1, 0.135573
293.1, 0.150307
297.1, 0.175308
301.1, 0.203441
305.1, 0.224843
309.1, 0.242616
313.1, 0.270962
317.1, 0.295293
321.1, 0.304352
325.1, 0.304624
329.1, 0.319404
333.1, 0.322661
337.1, 0.322054
341.1, 0.328298
345.1, 0.328595
349.1, 0.342376
353.1, 0.336391
357.1, 0.347965
360.6, 0.357552
363.6, 0.362223
366.6, 0.363019
369.6, 0.365499
372.6, 0.368114
375.6, 0.365690
378.6, 0.362206
381.1, 0.361864
383.1, 0.360388
385.1, 0.354926
387.1, 0.366728
389.1, 0.369464
391.1, 0.369985
393.1, 0.376606
395.1, 0.377239
397.1, 0.380328
399.1, 0.378535
401.1, 0.376044
403.1, 0.379734
405.1, 0.382516
407.1, 0.385693
409.1, 0.388112
411.1, 0.389306
412.8, 0.392245
415.8, 0.397255
418.8, 0.402150
421.8, 0.409156
424.8, 0.413575
427.8, 0.418666
430.8, 0.419327
433.8, 0.426091
436.8, 0.434271
439.8, 0.434377
442.8, 0.434392
445.8, 0.433942
448.8, 0.437456
451.3, 0.437928
453.3, 0.442169
455.3, 0.444043
457.3, 0.448923
459.3, 0.445202
461.3, 0.452106
463.3, 0.453974
465.3, 0.452834
467.3, 0.461473
469.3, 0.464716
471.3, 0.469330
473.3, 0.465970
475.3, 0.473383
477.3, 0.473619
479.3, 0.480654
481.3, 0.483718
483.3, 0.488792
485.3, 0.485552
487.3, 0.490273
489.3, 0.494464
491.3, 0.495454
493.3, 0.486760
495.3, 0.496688
497.3, 0.500176
499.3, 0.498568
501.3, 0.505339
503.3, 0.500870
505.3, 0.502442
507.3, 0.507154
509.3, 0.509126
511.3, 0.512727
513.3, 0.509887
515.3, 0.510130
517.3, 0.514688
519.3, 0.515229
521.3, 0.510207
523.3, 0.508781
525.3, 0.507934
527.3, 0.513811
529.3, 0.503842
531.3, 0.510176
533.3, 0.509996
535.3, 0.507261
537.3, 0.505283
539.3, 0.503013
541.3, 0.509403
543.3, 0.510276
545.3, 0.503599
547.3, 0.511034
549.3, 0.503848
551.3, 0.504109
553.3, 0.505453
555.3, 0.509273
557.3, 0.509812
559.3, 0.504031
561.3, 0.509055
563.3, 0.504102
565.3, 0.503987
567.3, 0.500952
569.3, 0.503399
571.3, 0.501601
573.3, 0.502257
575.3, 0.499751
577.3, 0.491964
579.3, 0.498367
581.3, 0.494349
583.3, 0.498584
585.3, 0.499191
587.3, 0.498930
589.3, 0.497852
591.3, 0.499152
593.3, 0.494024
595.3, 0.494417
597.3, 0.495540
599.3, 0.494125
601.1, 0.492925
602.7, 0.492117
604.3, 0.488075
605.9, 0.485389
607.5, 0.492213
609.1, 0.489693
610.7, 0.487065
612.3, 0.481008
613.9, 0.487797
615.5, 0.483062
617.1, 0.478147
618.7, 0.480552
620.3, 0.479791
621.9, 0.479364
623.5, 0.475894
625.1, 0.481144
626.7, 0.475729
628.3, 0.479308
629.9, 0.476646
631.7, 0.472869
633.7, 0.470962
635.7, 0.472889
637.7, 0.471226
639.7, 0.469521
641.7, 0.466250
643.7, 0.464661
645.7, 0.462593
647.7, 0.464833
649.7, 0.463018
651.7, 0.462675
653.7, 0.460974
655.7, 0.460091
657.7, 0.461225
659.7, 0.457648
661.7, 0.457903
663.7, 0.458414
665.7, 0.455337
667.7, 0.452504
670.2, 0.453937
673.2, 0.453208
676.2, 0.453974
679.2, 0.449633
682.2, 0.450045
685.2, 0.449319
688.2, 0.449938
691.2, 0.449794
694.2, 0.445812
697.2, 0.453240
700.2, 0.447705
702.0, 0.451842
704.0, 0.449767
706.0, 0.446314
708.0, 0.446828
710.0, 0.445758
712.0, 0.450859
714.0, 0.449252
716.0, 0.446655
718.0, 0.448442
720.0, 0.451057
722.0, 0.448034
724.0, 0.451070
726.0, 0.453521
728.0, 0.454425
730.0, 0.453358
732.0, 0.452875
734.0, 0.453122
736.0, 0.456076
738.0, 0.453455
740.0, 0.455547
742.0, 0.459861
744.0, 0.462121
746.0, 0.457380
748.0, 0.461391
750.5, 0.463166
753.5, 0.466851
756.5, 0.468883
759.5, 0.471744
762.5, 0.469570
765.5, 0.475257
768.5, 0.475867
771.5, 0.481147
774.5, 0.483897
777.5, 0.485186
781.0, 0.492601
785.0, 0.492960
789.0, 0.493345
793.0, 0.500794
797.0, 0.502199
801.5, 0.501443
806.5, 0.505628
811.5, 0.507484
816.5, 0.508787
822.0, 0.510103
828.0, 0.504912
835.0, 0.506917
843.0, 0.498140
851.0, 0.495445
859.0, 0.484649
871.0, 0.499598
883.0, 0.483137
894.0, 0.487087
904.0, 0.476263
914.0, 0.484462
924.0, 0.483774
933.0, 0.479582
941.0, 0.494142
949.0, 0.491057
957.0, 0.494240
964.0, 0.494734
970.0, 0.492914
976.0, 0.508205
982.0, 0.499485
988.0, 0.502627
994.0, 0.503203
1000.0, 0.505189
1006.0, 0.508418
1012.0, 0.504787
1018.0, 0.505932
1023.5, 0.502574
1028.5, 0.505884
1033.5, 0.503926
1038.5, 0.499038
1043.5, 0.507301
1048.5, 0.500940
1053.5, 0.498901
1058.5, 0.502374
1063.5, 0.500569
1068.5, 0.500294
1073.5, 0.501508
1078.5, 0.502784
1083.5, 0.505264
1088.5, 0.502546
1093.5, 0.507008
1098.5, 0.507730
1103.5, 0.507780
1108.5, 0.505702
1113.5, 0.513689
1118.5, 0.511580
1123.5, 0.512299
1128.5, 0.516739
1133.5, 0.513971
1138.5, 0.519286
1143.5, 0.519548
1148.5, 0.521350
1153.5, 0.522106
1158.5, 0.524807
1163.5, 0.523599
1168.5, 0.527705
1173.5, 0.523911
1178.5, 0.526070
1183.5, 0.534086
1188.5, 0.532592
1193.5, 0.537632
1198.5, 0.538510
1203.5, 0.538666
1208.5, 0.545397
1213.5, 0.545689
1218.5, 0.548298
1223.5, 0.552947
1228.5, 0.558216
1233.5, 0.554871
1238.5, 0.560147
1243.5, 0.556834
1248.5, 0.564776
1253.5, 0.564379
1258.5, 0.567175
1263.5, 0.566692
1268.5, 0.567120
1273.5, 0.571670
1278.5, 0.577569
1283.5, 0.570868
1288.5, 0.581149
1293.5, 0.577796
1298.5, 0.587972
1303.5, 0.581372
1308.5, 0.584734
1313.5, 0.586584
1318.5, 0.588868
1323.5, 0.593332
1328.5, 0.596532
1333.5, 0.597739
1338.5, 0.597597
1343.5, 0.602625
1348.5, 0.598601
1353.5, 0.602271
1358.5, 0.599258
1363.5, 0.594432
1368.5, 0.602379
1373.5, 0.604266
1378.5, 0.594317
1383.5, 0.570548
1388.5, 0.563748
1393.5, 0.548990
1398.5, 0.552304
1403.5, 0.574358
1408.5, 0.583014
1413.5, 0.594934
1418.5, 0.612630
1423.5, 0.613074
1428.5, 0.617762
1433.5, 0.622440
1438.5, 0.623944
1443.5, 0.626069
1448.5, 0.627331
1453.5, 0.632362
1458.5, 0.631660
1463.5, 0.636433
1468.5, 0.632127
1473.5, 0.635784
1478.5, 0.638227
1483.5, 0.634582
1488.5, 0.642922
1493.5, 0.646069
1498.5, 0.645078
1503.5, 0.648396
1508.5, 0.643621
1513.5, 0.645459
1518.5, 0.643702
1523.5, 0.653931
1528.5, 0.646253
1534.0, 0.653898
1540.0, 0.649340
1546.0, 0.654119
1552.0, 0.653810
1558.0, 0.657882
1564.0, 0.657560
1570.5, 0.653187
1577.5, 0.657611
1584.5, 0.656752
1591.5, 0.660762
1598.5, 0.658050
1605.5, 0.652496
1612.5, 0.656564
1619.5, 0.662814
1626.5, 0.667464
1633.5, 0.665654
1640.5, 0.666887
1647.5, 0.665218
1654.5, 0.669276
1661.5, 0.661458
1668.5, 0.667339
1676.0, 0.660667
1684.0, 0.673791
1692.0, 0.673406
1700.0, 0.671355
1708.0, 0.671510
1716.0, 0.672368
1724.0, 0.676250
1732.0, 0.663981
1740.0, 0.674752
1748.0, 0.666229
1756.0, 0.673398
1764.0, 0.675609
1772.0, 0.671563
1780.0, 0.661900
1788.0, 0.676617
1796.0, 0.679223
1805.0, 0.672073
1815.0, 0.675935
1825.0, 0.677608
1835.0, 0.677199
1845.0, 0.674472
1855.0, 0.667564
1865.0, 0.677412
1875.0, 0.677057
1885.0, 0.671279
1895.0, 0.671377
1905.0, 0.666283
1915.0, 0.655123
1925.0, 0.660535
1935.0, 0.657356
1945.0, 0.661307
1955.0, 0.646663
1965.0, 0.653354
1975.0, 0.645017
1985.0, 0.651681
1995.0, 0.653705
2005.0, 0.654611
2015.0, 0.657470
2025.0, 0.652792
2035.0, 0.667922
2045.0, 0.672775
2055.0, 0.674446
2065.0, 0.670292
2075.0, 0.664498
2085.0, 0.659224
2095.0, 0.655438
2105.0, 0.656448
2115.0, 0.659213
2125.0, 0.666159
2135.0, 0.668187
2145.0, 0.662754
2155.0, 0.666892
2165.0, 0.670964
2175.0, 0.675136
2185.0, 0.664914
2195.0, 0.661363
2205.0, 0.657086
2215.0, 0.662743
2225.0, 0.645918
2235.0, 0.631613
2245.0, 0.615624
2255.0, 0.612612
2265.0, 0.599419
2275.0, 0.585440
2285.0, 0.550463
2295.0, 0.536869
2305.0, 0.511699
2315.0, 0.479954
2325.0, 0.487045
2335.0, 0.514083
2345.0, 0.544424
2355.0, 0.569784
2365.0, 0.581285
2375.0, 0.575561
2386.0, 0.554734
2400.0, 0.563708
2418.0, 0.557117
2440.0, 0.548061
2466.0, 0.544226
2496.0, 0.530427
2528.0, 0.528748
2560.0, 0.527446
2592.0, 0.539367
2624.0, 0.559934
2656.0, 0.550032
2688.0, 0.321092
2720.0, 0.0884740
2784.0, 0.0644130
2816.0, 0.0169180
2848.0, 0.122999
2880.0, 0.0794760
2912.0, 0.130676
2944.0, 0.248966
2976.0, 0.308709
