Database of Origin, USGS Spectral Database
Sample Description, See USGS database for additional info
Date Added,2016-08-10 05:34:23.232761

Data ID,USGS_rut01          
Sample ID, rutile_hs126.19695
Mineral Name, rutile
Material Class,Oxide

Wavelength
242.1, 0.0616020
248.1, 0.0664740
253.6, 0.0677030
258.6, 0.0733650
263.6, 0.0772190
268.6, 0.0790380
273.1, 0.0825710
277.1, 0.0833920
281.1, 0.0857310
285.1, 0.0868100
289.1, 0.0871670
293.1, 0.0881330
297.1, 0.0916190
301.1, 0.0916170
305.1, 0.0954690
309.1, 0.0958550
313.1, 0.0974700
317.1, 0.0969860
321.1, 0.0957860
325.1, 0.0951800
329.1, 0.0950030
333.1, 0.0910870
337.1, 0.0929110
341.1, 0.0918910
345.1, 0.0897620
349.1, 0.0901750
353.1, 0.0920370
357.1, 0.0910690
360.6, 0.0908380
363.6, 0.0901610
366.6, 0.0906340
369.6, 0.0912910
372.6, 0.0910810
375.6, 0.0911950
378.6, 0.0939990
381.1, 0.0939500
383.1, 0.0934210
385.1, 0.0949130
387.1, 0.0953850
389.1, 0.0968360
391.1, 0.0981330
393.1, 0.100317
395.1, 0.101054
397.1, 0.104059
399.1, 0.103840
401.1, 0.106047
403.1, 0.107494
405.1, 0.108460
407.1, 0.109860
409.1, 0.110498
411.1, 0.110999
412.8, 0.111931
415.8, 0.113405
418.8, 0.114179
421.8, 0.115836
424.8, 0.115120
427.8, 0.116833
430.8, 0.118487
433.8, 0.118654
436.8, 0.119680
439.8, 0.120047
442.8, 0.120691
445.8, 0.121102
448.8, 0.123552
451.3, 0.122695
453.3, 0.124023
455.3, 0.122709
457.3, 0.124763
459.3, 0.123720
461.3, 0.123767
463.3, 0.124111
465.3, 0.125155
467.3, 0.124287
469.3, 0.125963
471.3, 0.125356
473.3, 0.126388
475.3, 0.127556
477.3, 0.127428
479.3, 0.128304
481.3, 0.128054
483.3, 0.128531
485.3, 0.128695
487.3, 0.129880
489.3, 0.129758
491.3, 0.130959
493.3, 0.130504
495.3, 0.131968
497.3, 0.131948
499.3, 0.132686
501.3, 0.132858
503.3, 0.134364
505.3, 0.133329
507.3, 0.134987
509.3, 0.136410
511.3, 0.135743
513.3, 0.137597
515.3, 0.137476
517.3, 0.138822
519.3, 0.138757
521.3, 0.140365
523.3, 0.140901
525.3, 0.142452
527.3, 0.142464
529.3, 0.143758
531.3, 0.144157
533.3, 0.145356
535.3, 0.146687
537.3, 0.147005
539.3, 0.149136
541.3, 0.150810
543.3, 0.151303
545.3, 0.152007
547.3, 0.154523
549.3, 0.155743
551.3, 0.156536
553.3, 0.157992
555.3, 0.159525
557.3, 0.161396
559.3, 0.162415
561.3, 0.164521
563.3, 0.167290
565.3, 0.169159
567.3, 0.170962
569.3, 0.173935
571.3, 0.175436
573.3, 0.178473
575.3, 0.180255
577.3, 0.183599
579.3, 0.185407
581.3, 0.188285
583.3, 0.192228
585.3, 0.193757
587.3, 0.197020
589.3, 0.201047
591.3, 0.203657
593.3, 0.207176
595.3, 0.210288
597.3, 0.213155
599.3, 0.217573
601.1, 0.219693
602.7, 0.223759
604.3, 0.226840
605.9, 0.228956
607.5, 0.233125
609.1, 0.235800
610.7, 0.239220
612.3, 0.242672
613.9, 0.245375
615.5, 0.248395
617.1, 0.252308
618.7, 0.255533
620.3, 0.259380
621.9, 0.262119
623.5, 0.266890
625.1, 0.269801
626.7, 0.273084
628.3, 0.277186
629.9, 0.280471
631.7, 0.283977
633.7, 0.289275
635.7, 0.293622
637.7, 0.297733
639.7, 0.301344
641.7, 0.306858
643.7, 0.309930
645.7, 0.316088
647.7, 0.319355
649.7, 0.324641
651.7, 0.327007
653.7, 0.331448
655.7, 0.335203
657.7, 0.340140
659.7, 0.342864
661.7, 0.346718
663.7, 0.349255
665.7, 0.353849
667.7, 0.354976
670.2, 0.360515
673.2, 0.364540
676.2, 0.370210
679.2, 0.372997
682.2, 0.378186
685.2, 0.379944
688.2, 0.383519
691.2, 0.386467
694.2, 0.392712
697.2, 0.393957
700.2, 0.396752
702.0, 0.398551
704.0, 0.402149
706.0, 0.402434
708.0, 0.406116
710.0, 0.406118
712.0, 0.407808
714.0, 0.410225
716.0, 0.411530
718.0, 0.413749
720.0, 0.415353
722.0, 0.416158
724.0, 0.419762
726.0, 0.420956
728.0, 0.424062
730.0, 0.424419
732.0, 0.428511
734.0, 0.428944
736.0, 0.431909
738.0, 0.433684
740.0, 0.433953
742.0, 0.438570
744.0, 0.439953
746.0, 0.441186
748.0, 0.441034
750.5, 0.443910
753.5, 0.449274
756.5, 0.452492
759.5, 0.454972
762.5, 0.458997
765.5, 0.464284
768.5, 0.467920
771.5, 0.472428
774.5, 0.475840
777.5, 0.480296
781.0, 0.483510
785.0, 0.491001
789.0, 0.495114
793.0, 0.499713
797.0, 0.505665
801.5, 0.510577
806.5, 0.516823
811.5, 0.522213
816.5, 0.527314
822.0, 0.532757
828.0, 0.537542
835.0, 0.543465
843.0, 0.551188
851.0, 0.558636
859.0, 0.562465
871.0, 0.571947
883.0, 0.575626
894.0, 0.580440
904.0, 0.583545
914.0, 0.584128
924.0, 0.586690
933.0, 0.591658
941.0, 0.590898
949.0, 0.589096
957.0, 0.590587
964.0, 0.593648
970.0, 0.594724
976.0, 0.592472
982.0, 0.596153
988.0, 0.594271
994.0, 0.596094
1000.0, 0.594543
1006.0, 0.594766
1012.0, 0.594482
1018.0, 0.593482
1023.5, 0.596017
1028.5, 0.592551
1033.5, 0.593180
1038.5, 0.593937
1043.5, 0.593851
1048.5, 0.594932
1053.5, 0.592956
1058.5, 0.590906
1063.5, 0.589619
1068.5, 0.591070
1073.5, 0.591361
1078.5, 0.589207
1083.5, 0.590143
1088.5, 0.590742
1093.5, 0.587727
1098.5, 0.587663
1103.5, 0.587406
1108.5, 0.587398
1113.5, 0.586823
1118.5, 0.585795
1123.5, 0.585070
1128.5, 0.583957
1133.5, 0.584754
1138.5, 0.583525
1143.5, 0.581965
1148.5, 0.582612
1153.5, 0.580666
1158.5, 0.578858
1163.5, 0.579976
1168.5, 0.578562
1173.5, 0.578805
1178.5, 0.575775
1183.5, 0.576767
1188.5, 0.579787
1193.5, 0.577076
1198.5, 0.577771
1203.5, 0.576526
1208.5, 0.574609
1213.5, 0.575133
1218.5, 0.574784
1223.5, 0.573820
1228.5, 0.573385
1233.5, 0.573643
1238.5, 0.573912
1243.5, 0.573363
1248.5, 0.572787
1253.5, 0.571777
1258.5, 0.573179
1263.5, 0.573038
1268.5, 0.572520
1273.5, 0.572731
1278.5, 0.573392
1283.5, 0.573003
1288.5, 0.572369
1293.5, 0.572296
1298.5, 0.571119
1303.5, 0.571738
1308.5, 0.572079
1313.5, 0.573789
1318.5, 0.572744
1323.5, 0.571499
1328.5, 0.573565
1333.5, 0.572787
1338.5, 0.575581
1343.5, 0.573013
1348.5, 0.574477
1353.5, 0.575381
1358.5, 0.576304
1363.5, 0.574655
1368.5, 0.575424
1373.5, 0.575410
1378.5, 0.573721
1383.5, 0.576976
1388.5, 0.573989
1393.5, 0.575032
1398.5, 0.574845
1403.5, 0.573528
1408.5, 0.574960
1413.5, 0.571651
1418.5, 0.573430
1423.5, 0.573262
1428.5, 0.574211
1433.5, 0.576944
1438.5, 0.574329
1443.5, 0.574477
1448.5, 0.576137
1453.5, 0.577953
1458.5, 0.574291
1463.5, 0.576725
1468.5, 0.577075
1473.5, 0.578380
1478.5, 0.577337
1483.5, 0.577560
1488.5, 0.578567
1493.5, 0.578150
1498.5, 0.578203
1503.5, 0.578215
1508.5, 0.578526
1513.5, 0.577913
1518.5, 0.578520
1523.5, 0.581122
1528.5, 0.581087
1534.0, 0.580048
1540.0, 0.582776
1546.0, 0.581055
1552.0, 0.583117
1558.0, 0.584988
1564.0, 0.582535
1570.5, 0.583212
1577.5, 0.582976
1584.5, 0.585559
1591.5, 0.584508
1598.5, 0.584369
1605.5, 0.586161
1612.5, 0.586413
1619.5, 0.585975
1626.5, 0.586128
1633.5, 0.587580
1640.5, 0.589230
1647.5, 0.586579
1654.5, 0.589221
1661.5, 0.589114
1668.5, 0.591253
1676.0, 0.590905
1684.0, 0.589998
1692.0, 0.589097
1700.0, 0.593952
1708.0, 0.592957
1716.0, 0.594631
1724.0, 0.592066
1732.0, 0.594622
1740.0, 0.601811
1748.0, 0.599880
1756.0, 0.599458
1764.0, 0.599614
1772.0, 0.603279
1780.0, 0.603062
1788.0, 0.606745
1796.0, 0.605090
1805.0, 0.605681
1815.0, 0.605330
1825.0, 0.606326
1835.0, 0.608140
1845.0, 0.606322
1855.0, 0.611072
1865.0, 0.611216
1875.0, 0.611324
1885.0, 0.610317
1895.0, 0.605785
1905.0, 0.601992
1915.0, 0.599996
1925.0, 0.599643
1935.0, 0.601164
1945.0, 0.604159
1955.0, 0.604743
1965.0, 0.608354
1975.0, 0.610151
1985.0, 0.613376
1995.0, 0.616333
2005.0, 0.619214
2015.0, 0.621413
2025.0, 0.623561
2035.0, 0.626342
2045.0, 0.624312
2055.0, 0.630972
2065.0, 0.626325
2075.0, 0.631885
2085.0, 0.633967
2095.0, 0.634697
2105.0, 0.639011
2115.0, 0.634857
2125.0, 0.644309
2135.0, 0.644982
2145.0, 0.647073
2155.0, 0.646635
2165.0, 0.642260
2175.0, 0.642235
2185.0, 0.638836
2195.0, 0.631387
2205.0, 0.634785
2215.0, 0.638328
2225.0, 0.634352
2235.0, 0.644821
2245.0, 0.640763
2255.0, 0.633955
2265.0, 0.636963
2275.0, 0.632661
2285.0, 0.625477
2295.0, 0.600128
2305.0, 0.605578
2315.0, 0.625292
2325.0, 0.639276
2335.0, 0.645442
2345.0, 0.642896
2355.0, 0.647149
2365.0, 0.650396
2375.0, 0.650007
2386.0, 0.640477
2400.0, 0.637487
2418.0, 0.641476
2440.0, 0.634302
2466.0, 0.621324
2496.0, 0.619475
2528.0, 0.625690
2560.0, 0.634639
2592.0, 0.626476
2624.0, 0.625760
2656.0, 0.610663
2688.0, 0.533687
2720.0, 0.452467
2752.0, 0.361754
2784.0, 0.300001
2816.0, 0.288483
2848.0, 0.266590
2880.0, 0.242761
2912.0, 0.231277
2944.0, 0.243320
2976.0, 0.242909
