Database of Origin, USGS Spectral Database
Sample Description, See USGS database for additional info
Date Added,2016-08-10 05:22:00.517567

Data ID,USGS_par01          
Sample ID, paragonite_gds109.17429
Mineral Name, paragonite
Material Class,Phyllosilicate

Wavelength
221.1, 0.0546440
229.1, 0.0570010
236.1, 0.0576550
242.1, 0.0575050
248.1, 0.0581360
253.6, 0.0592700
258.6, 0.0616490
263.6, 0.0641390
268.6, 0.0681440
273.1, 0.0736620
277.1, 0.0793670
281.1, 0.0864300
285.1, 0.0954300
289.1, 0.105392
293.1, 0.118249
297.1, 0.132010
301.1, 0.147675
305.1, 0.164755
309.1, 0.182686
313.1, 0.201221
317.1, 0.217354
321.1, 0.234562
325.1, 0.247981
329.1, 0.261295
333.1, 0.272012
337.1, 0.281821
341.1, 0.289777
345.1, 0.297354
349.1, 0.303263
353.1, 0.309382
357.1, 0.314003
360.6, 0.316591
363.6, 0.318255
366.6, 0.318795
369.6, 0.319723
372.6, 0.320406
375.6, 0.321171
378.6, 0.322438
381.1, 0.324206
383.1, 0.323969
385.1, 0.323549
387.1, 0.324499
389.1, 0.323222
391.1, 0.322877
393.1, 0.322286
395.1, 0.319760
397.1, 0.319029
399.1, 0.319128
401.1, 0.317079
403.1, 0.316883
405.1, 0.316109
407.1, 0.316666
409.1, 0.317453
411.1, 0.317419
412.8, 0.317189
415.8, 0.315945
418.8, 0.315653
421.8, 0.314442
424.8, 0.315251
427.8, 0.318068
430.8, 0.324134
433.8, 0.334015
436.8, 0.343837
439.8, 0.358077
442.8, 0.371828
445.8, 0.387434
448.8, 0.402872
451.3, 0.414555
453.3, 0.423502
455.3, 0.431426
457.3, 0.438778
459.3, 0.445774
461.3, 0.451140
463.3, 0.455759
465.3, 0.460502
467.3, 0.464621
469.3, 0.468153
471.3, 0.470589
473.3, 0.474328
475.3, 0.476775
477.3, 0.478932
479.3, 0.480731
481.3, 0.483867
483.3, 0.487706
485.3, 0.489518
487.3, 0.492001
489.3, 0.494433
491.3, 0.496721
493.3, 0.498523
495.3, 0.500848
497.3, 0.504708
499.3, 0.505924
501.3, 0.509891
503.3, 0.510828
505.3, 0.515110
507.3, 0.515028
509.3, 0.518504
511.3, 0.521444
513.3, 0.524119
515.3, 0.526938
517.3, 0.528845
519.3, 0.530651
521.3, 0.534915
523.3, 0.536745
525.3, 0.538804
527.3, 0.539965
529.3, 0.544291
531.3, 0.544718
533.3, 0.547720
535.3, 0.550710
537.3, 0.551210
539.3, 0.553579
541.3, 0.557018
543.3, 0.558529
545.3, 0.560518
547.3, 0.563011
549.3, 0.564657
551.3, 0.566384
553.3, 0.568360
555.3, 0.571758
557.3, 0.573246
559.3, 0.575435
561.3, 0.579452
563.3, 0.580705
565.3, 0.582700
567.3, 0.585910
569.3, 0.585442
571.3, 0.587134
573.3, 0.589774
575.3, 0.590795
577.3, 0.592149
579.3, 0.592696
581.3, 0.595274
583.3, 0.596124
585.3, 0.597749
587.3, 0.598832
589.3, 0.600201
591.3, 0.601904
593.3, 0.603320
595.3, 0.605718
597.3, 0.606095
599.3, 0.607825
601.1, 0.608105
602.7, 0.609713
604.3, 0.611033
605.9, 0.612504
607.5, 0.613171
609.1, 0.612892
610.7, 0.614955
612.3, 0.615279
613.9, 0.616138
615.5, 0.616806
617.1, 0.618531
618.7, 0.619911
620.3, 0.619663
621.9, 0.620842
623.5, 0.621783
625.1, 0.622138
626.7, 0.623837
628.3, 0.624091
629.9, 0.624988
631.7, 0.626666
633.7, 0.627020
635.7, 0.627623
637.7, 0.628618
639.7, 0.630642
641.7, 0.630504
643.7, 0.631845
645.7, 0.633993
647.7, 0.634221
649.7, 0.635894
651.7, 0.636720
653.7, 0.638575
655.7, 0.639284
657.7, 0.640182
659.7, 0.641857
661.7, 0.643531
663.7, 0.643711
665.7, 0.645436
667.7, 0.645748
670.2, 0.647364
673.2, 0.651164
676.2, 0.651562
679.2, 0.653359
682.2, 0.656526
685.2, 0.656400
688.2, 0.658121
691.2, 0.659550
694.2, 0.662006
697.2, 0.664106
700.2, 0.661955
702.0, 0.663017
704.0, 0.665874
706.0, 0.665421
708.0, 0.667191
710.0, 0.667651
712.0, 0.668490
714.0, 0.670737
716.0, 0.671077
718.0, 0.671020
720.0, 0.672320
722.0, 0.674239
724.0, 0.674382
726.0, 0.675545
728.0, 0.675914
730.0, 0.677134
732.0, 0.678051
734.0, 0.678889
736.0, 0.679606
738.0, 0.680786
740.0, 0.682119
742.0, 0.683787
744.0, 0.682467
746.0, 0.683634
748.0, 0.683844
750.5, 0.684193
753.5, 0.685267
756.5, 0.687110
759.5, 0.687559
762.5, 0.690206
765.5, 0.689016
768.5, 0.690093
771.5, 0.692830
774.5, 0.693128
777.5, 0.695329
781.0, 0.693466
785.0, 0.694925
789.0, 0.695595
793.0, 0.697283
797.0, 0.696977
801.5, 0.697549
806.5, 0.698298
811.5, 0.700627
816.5, 0.700253
822.0, 0.700560
828.0, 0.700483
835.0, 0.701730
843.0, 0.700764
851.0, 0.698315
859.0, 0.698324
871.0, 0.696739
883.0, 0.697289
894.0, 0.699446
904.0, 0.700714
914.0, 0.698506
924.0, 0.702529
933.0, 0.701330
941.0, 0.704294
949.0, 0.702141
957.0, 0.698069
964.0, 0.698932
970.0, 0.703733
976.0, 0.709140
982.0, 0.711441
988.0, 0.713847
994.0, 0.717143
1000.0, 0.716011
1006.0, 0.717829
1012.0, 0.717874
1018.0, 0.717734
1023.5, 0.720392
1028.5, 0.722414
1033.5, 0.722443
1038.5, 0.724362
1043.5, 0.724999
1048.5, 0.725690
1053.5, 0.726000
1058.5, 0.727714
1063.5, 0.729795
1068.5, 0.729343
1073.5, 0.730622
1078.5, 0.732640
1083.5, 0.733122
1088.5, 0.733521
1093.5, 0.735390
1098.5, 0.735209
1103.5, 0.737682
1108.5, 0.737734
1113.5, 0.737949
1118.5, 0.739414
1123.5, 0.740163
1128.5, 0.743769
1133.5, 0.743078
1138.5, 0.744765
1143.5, 0.747258
1148.5, 0.745685
1153.5, 0.746926
1158.5, 0.747354
1163.5, 0.748855
1168.5, 0.750003
1173.5, 0.750806
1178.5, 0.748481
1183.5, 0.752787
1188.5, 0.753909
1193.5, 0.754706
1198.5, 0.756413
1203.5, 0.757060
1208.5, 0.756642
1213.5, 0.757346
1218.5, 0.759014
1223.5, 0.758448
1228.5, 0.759761
1233.5, 0.759867
1238.5, 0.760607
1243.5, 0.760030
1248.5, 0.760874
1253.5, 0.762557
1258.5, 0.763965
1263.5, 0.765952
1268.5, 0.766422
1273.5, 0.765308
1278.5, 0.766582
1283.5, 0.764966
1288.5, 0.765089
1293.5, 0.764706
1298.5, 0.765095
1303.5, 0.762825
1308.5, 0.761846
1313.5, 0.761995
1318.5, 0.760140
1323.5, 0.762181
1328.5, 0.762531
1333.5, 0.763058
1338.5, 0.762321
1343.5, 0.764888
1348.5, 0.766628
1353.5, 0.764302
1358.5, 0.762686
1363.5, 0.759139
1368.5, 0.752861
1373.5, 0.751176
1378.5, 0.746590
1383.5, 0.734575
1388.5, 0.695861
1393.5, 0.625202
1398.5, 0.557540
1403.5, 0.535613
1408.5, 0.518450
1413.5, 0.529328
1418.5, 0.595838
1423.5, 0.667258
1428.5, 0.710802
1433.5, 0.736048
1438.5, 0.747211
1443.5, 0.755191
1448.5, 0.761934
1453.5, 0.765935
1458.5, 0.767522
1463.5, 0.769912
1468.5, 0.769656
1473.5, 0.773252
1478.5, 0.775298
1483.5, 0.776520
1488.5, 0.776930
1493.5, 0.776787
1498.5, 0.780099
1503.5, 0.780589
1508.5, 0.780993
1513.5, 0.782078
1518.5, 0.783058
1523.5, 0.785265
1528.5, 0.785876
1534.0, 0.784139
1540.0, 0.786044
1546.0, 0.785657
1552.0, 0.787256
1558.0, 0.790244
1564.0, 0.789919
1570.5, 0.787667
1577.5, 0.788982
1584.5, 0.790335
1591.5, 0.790168
1598.5, 0.790233
1605.5, 0.789833
1612.5, 0.790831
1619.5, 0.790242
1626.5, 0.790927
1633.5, 0.790268
1640.5, 0.791307
1647.5, 0.790129
1654.5, 0.791726
1661.5, 0.789936
1668.5, 0.793526
1676.0, 0.789895
1684.0, 0.791869
1692.0, 0.794442
1700.0, 0.791717
1708.0, 0.794100
1716.0, 0.789797
1724.0, 0.790583
1732.0, 0.793253
1740.0, 0.790622
1748.0, 0.791383
1756.0, 0.789269
1764.0, 0.787054
1772.0, 0.787497
1780.0, 0.786653
1788.0, 0.791531
1796.0, 0.789112
1805.0, 0.786466
1815.0, 0.782511
1825.0, 0.776795
1835.0, 0.775304
1845.0, 0.780331
1855.0, 0.783758
1865.0, 0.779026
1875.0, 0.773606
1885.0, 0.764340
1895.0, 0.749167
1905.0, 0.729130
1915.0, 0.720160
1925.0, 0.721809
1935.0, 0.725571
1945.0, 0.727526
1955.0, 0.729397
1965.0, 0.734333
1975.0, 0.737618
1985.0, 0.740522
1995.0, 0.744111
2005.0, 0.747568
2015.0, 0.747591
2025.0, 0.748038
2035.0, 0.747364
2045.0, 0.745917
2055.0, 0.747193
2065.0, 0.746741
2075.0, 0.745823
2085.0, 0.736638
2095.0, 0.721715
2105.0, 0.703126
2115.0, 0.685522
2125.0, 0.669817
2135.0, 0.657494
2145.0, 0.643948
2155.0, 0.620038
2165.0, 0.557756
2175.0, 0.465572
2185.0, 0.393805
2195.0, 0.378909
2205.0, 0.442052
2215.0, 0.525151
2225.0, 0.567816
2235.0, 0.582033
2245.0, 0.595496
2255.0, 0.598468
2265.0, 0.599848
2275.0, 0.596574
2285.0, 0.584297
2295.0, 0.558651
2305.0, 0.527415
2315.0, 0.487763
2325.0, 0.462634
2335.0, 0.448174
2345.0, 0.449358
2355.0, 0.455724
2365.0, 0.460370
2375.0, 0.453561
2386.0, 0.445346
2400.0, 0.433017
2418.0, 0.399660
2440.0, 0.381550
2466.0, 0.398326
2496.0, 0.417189
2528.0, 0.439031
2560.0, 0.430481
2592.0, 0.413080
2624.0, 0.380115
2656.0, 0.364271
2688.0, 0.277195
2720.0, 0.105843
2752.0, 0.0379540
2784.0, 0.0836850
2816.0, 0.156435
2848.0, 0.159610
2880.0, 0.164112
2912.0, 0.163564
2944.0, 0.154139
2976.0, 0.153544
