Database of Origin,USGS Spectral Database
Sample Description,See USGS database for additional info
Date Added,2017-02-22 02:49:15.398826

Data ID,USGS_top01          
Sample ID,topaz_10.22940
Mineral Name,topaz

Wavelength
221.1, 0.239683
229.1, 0.439904
236.1, 0.501156
242.1, 0.527773
248.1, 0.563363
253.6, 0.585305
258.6, 0.614088
263.6, 0.639270
268.6, 0.669040
273.1, 0.699565
277.1, 0.726964
281.1, 0.750423
285.1, 0.770815
289.1, 0.777095
293.1, 0.794039
297.1, 0.799679
301.1, 0.803108
305.1, 0.807410
309.1, 0.809704
313.1, 0.817723
317.1, 0.818803
321.1, 0.826169
325.1, 0.835880
329.1, 0.834973
333.1, 0.844778
337.1, 0.848270
341.1, 0.859429
345.1, 0.858753
349.1, 0.863097
353.1, 0.865541
357.1, 0.870522
360.6, 0.869095
363.6, 0.873893
366.6, 0.872912
369.6, 0.879015
372.6, 0.874878
375.6, 0.880749
378.6, 0.875279
381.1, 0.875884
383.1, 0.877214
385.1, 0.875411
387.1, 0.878801
389.1, 0.877787
391.1, 0.877107
393.1, 0.881106
395.1, 0.878571
397.1, 0.876709
399.1, 0.879411
401.1, 0.879486
403.1, 0.878400
405.1, 0.877146
407.1, 0.878498
409.1, 0.877903
411.1, 0.880685
412.8, 0.881558
415.8, 0.881444
418.8, 0.878680
421.8, 0.882034
424.8, 0.883300
427.8, 0.883105
430.8, 0.884940
433.8, 0.887527
436.8, 0.886723
439.8, 0.888629
442.8, 0.887872
445.8, 0.892385
448.8, 0.891546
451.3, 0.890911
453.3, 0.892805
455.3, 0.896222
457.3, 0.896244
459.3, 0.896193
461.3, 0.894715
463.3, 0.896051
465.3, 0.896014
467.3, 0.897977
469.3, 0.897342
471.3, 0.897995
473.3, 0.899366
475.3, 0.900658
477.3, 0.905376
479.3, 0.901323
481.3, 0.904055
483.3, 0.899926
485.3, 0.905438
487.3, 0.904052
489.3, 0.905538
491.3, 0.906155
493.3, 0.904826
495.3, 0.905510
497.3, 0.905427
499.3, 0.909565
501.3, 0.906750
503.3, 0.907479
505.3, 0.908148
507.3, 0.908175
509.3, 0.908819
511.3, 0.908094
513.3, 0.910097
515.3, 0.910059
517.3, 0.909363
519.3, 0.910707
521.3, 0.908674
523.3, 0.910635
525.3, 0.908569
527.3, 0.909890
529.3, 0.913299
531.3, 0.913991
533.3, 0.910500
535.3, 0.911821
537.3, 0.913157
539.3, 0.914489
541.3, 0.913822
543.3, 0.913767
545.3, 0.915781
547.3, 0.915837
549.3, 0.917154
551.3, 0.916518
553.3, 0.920693
555.3, 0.920752
557.3, 0.922143
559.3, 0.920082
561.3, 0.922878
563.3, 0.921471
565.3, 0.921465
567.3, 0.923517
569.3, 0.925562
571.3, 0.926951
573.3, 0.928351
575.3, 0.926254
577.3, 0.928267
579.3, 0.929623
581.3, 0.930985
583.3, 0.933701
585.3, 0.931646
587.3, 0.936511
589.3, 0.935114
591.3, 0.936531
593.3, 0.941400
595.3, 0.940071
597.3, 0.940078
599.3, 0.944980
601.1, 0.945678
602.7, 0.947809
604.3, 0.945741
605.9, 0.949282
607.5, 0.947877
609.1, 0.948575
610.7, 0.949312
612.3, 0.951407
613.9, 0.952802
615.5, 0.953502
617.1, 0.954898
618.7, 0.951443
620.3, 0.952861
621.9, 0.952833
623.5, 0.954256
625.1, 0.955658
626.7, 0.955654
628.3, 0.954949
629.9, 0.955619
631.7, 0.956342
633.7, 0.957738
635.7, 0.958435
637.7, 0.959807
639.7, 0.959084
641.7, 0.961877
643.7, 0.959105
645.7, 0.959777
647.7, 0.963243
649.7, 0.959751
651.7, 0.960450
653.7, 0.961148
655.7, 0.963223
657.7, 0.963899
659.7, 0.963902
661.7, 0.963918
663.7, 0.966698
665.7, 0.961778
667.7, 0.966681
670.2, 0.966656
673.2, 0.969431
676.2, 0.969419
679.2, 0.968027
682.2, 0.971493
685.2, 0.970800
688.2, 0.972879
691.2, 0.974949
694.2, 0.973526
697.2, 0.974203
700.2, 0.974885
702.0, 0.973500
704.0, 0.969963
706.0, 0.975577
708.0, 0.970618
710.0, 0.974132
712.0, 0.973409
714.0, 0.972685
716.0, 0.976198
718.0, 0.972637
720.0, 0.974046
722.0, 0.971894
724.0, 0.973289
726.0, 0.973990
728.0, 0.975380
730.0, 0.974661
732.0, 0.976796
734.0, 0.974632
736.0, 0.972450
738.0, 0.977465
740.0, 0.973138
742.0, 0.975987
744.0, 0.977417
746.0, 0.975225
748.0, 0.977394
750.5, 0.976658
753.5, 0.977367
756.5, 0.975894
759.5, 0.976606
762.5, 0.974404
765.5, 0.976552
768.5, 0.974358
771.5, 0.975058
774.5, 0.977960
777.5, 0.980107
781.0, 0.975706
785.0, 0.974945
789.0, 0.977118
793.0, 0.977094
797.0, 0.977056
801.5, 0.977756
806.5, 0.976991
811.5, 0.974714
816.5, 0.972427
822.0, 0.974586
828.0, 0.972998
835.0, 0.969778
843.0, 0.971173
851.0, 0.983197
859.0, 0.984724
871.0, 0.987791
883.0, 0.987007
894.0, 0.995555
904.0, 0.988542
914.0, 0.987760
924.0, 0.987753
933.0, 0.990086
941.0, 0.986169
949.0, 0.991647
957.0, 0.988499
964.0, 0.985366
970.0, 0.988498
976.0, 0.986925
982.0, 0.993210
988.0, 0.993211
994.0, 0.993999
1000.0, 0.992422
1006.0, 0.994790
1012.0, 0.990846
1018.0, 0.997955
1023.5, 0.992427
1028.5, 0.993217
1033.5, 0.993216
1038.5, 0.991632
1043.5, 0.994797
1048.5, 0.995585
1053.5, 0.997168
1058.5,0.0100112
1063.5, 0.999533
1068.5,0.0100111
1073.5, 0.997144
1078.5, 0.998731
1083.5,0.0100271
1088.5, 0.999539
1093.5,0.0100273
1098.5,0.0100036
1103.5, 0.997196
1108.5, 0.998807
1113.5,0.0100202
1118.5,0.0100125
1123.5,0.0100525
1128.5, 0.997302
1133.5,0.0100128
1138.5,0.0100207
1143.5,0.0100125
1148.5, 0.999603
1153.5,0.0100352
1158.5,0.0100264
1163.5,0.0100093
1168.5,0.0100002
1173.5,0.010047
1178.5,0.0100218
1183.5, 0.999664
1188.5, 0.997967
1193.5,0.0100108
1198.5,0.0100182
1203.5, 0.999370
1208.5, 0.996946
1213.5, 0.998549
1218.5,0.0100336
1223.5,0.0100017
1228.5,0.0100339
1233.5,0.0100421
1238.5,0.0100664
1243.5,0.0100584
1248.5,0.0100423
1253.5,0.0100259
1258.5, 0.998528
1263.5,0.0100729
1268.5,0.0100238
1273.5,0.0100549
1278.5, 0.998154
1283.5,0.0100284
1288.5,0.0100754
1293.5,0.0100421
1298.5,0.0100086
1303.5, 0.997525
1308.5,0.0100544
1313.5,0.0100211
1318.5,0.010028
1323.5,0.0100268
1328.5,0.0100339
1333.5, 0.996877
1338.5, 0.995188
1343.5, 0.994300
1348.5, 0.993430
1353.5, 0.992566
1358.5, 0.996532
1363.5, 0.994084
1368.5, 0.992451
1373.5, 0.992438
1378.5, 0.991633
1383.5, 0.993255
1388.5, 0.985239
1393.5, 0.987698
1398.5, 0.955575
1403.5, 0.853440
1408.5, 0.909808
1413.5, 0.968678
1418.5, 0.991367
1423.5, 0.988256
1428.5, 0.989984
1433.5, 0.991710
1438.5, 0.997458
1443.5, 0.995942
1448.5, 0.997633
1453.5, 0.998496
1458.5,0.0100016
1463.5, 0.996947
1468.5,0.010018
1473.5, 0.998567
1478.5,0.0100098
1483.5,0.0100097
1488.5, 0.999327
1493.5, 0.999311
1498.5, 0.999287
1503.5, 0.996818
1508.5,0.0100165
1513.5, 0.997605
1518.5, 0.999209
1523.5,0.0100163
1528.5, 0.997595
1534.0,0.0100164
1540.0, 0.998433
1546.0,0.0100329
1552.0,0.0100331
1558.0,0.0100334
1564.0, 0.999319
1570.5,0.0100096
1577.5,0.0100502
1584.5,0.0100179
1591.5,0.0100177
1598.5,0.010001
1605.5,0.0100571
1612.5,0.0100074
1619.5,0.0100142
1626.5, 0.999644
1633.5,0.0100111
1640.5,0.0100013
1647.5, 0.999152
1654.5,0.0100303
1661.5,0.0100287
1668.5, 0.997043
1676.0, 0.992834
1684.0, 0.974872
1692.0, 0.980411
1700.0, 0.994045
1708.0, 0.986681
1716.0, 0.992278
1724.0, 0.987397
1732.0, 0.989833
1740.0, 0.985022
1748.0, 0.983491
1756.0, 0.994153
1764.0, 0.991062
1772.0, 0.993616
1780.0, 0.994482
1788.0, 0.990374
1796.0, 0.995042
1805.0, 0.997838
1815.0, 0.999515
1825.0, 0.990496
1835.0, 0.989577
1845.0, 0.986330
1855.0, 0.988168
1865.0, 0.988630
1875.0, 0.986838
1885.0, 0.982704
1895.0, 0.981007
1905.0, 0.976812
1915.0, 0.973354
1925.0, 0.971466
1935.0, 0.971229
1945.0, 0.973505
1955.0, 0.972649
1965.0, 0.967766
1975.0, 0.974870
1985.0, 0.977499
1995.0, 0.981118
2005.0, 0.974248
2015.0, 0.972077
2025.0, 0.980215
2035.0, 0.977908
2045.0, 0.972424
2055.0, 0.963580
2065.0, 0.925051
2075.0, 0.796989
2085.0, 0.625590
2095.0, 0.828735
2105.0, 0.918014
2115.0, 0.944296
2125.0, 0.944249
2135.0, 0.927173
2145.0, 0.894436
2155.0, 0.888587
2165.0, 0.909278
2175.0, 0.914640
2185.0, 0.922488
2195.0, 0.918847
2205.0, 0.899557
2215.0, 0.907091
2225.0, 0.941801
2235.0, 0.947526
2245.0, 0.948723
2255.0, 0.928882
2265.0, 0.894583
2275.0, 0.928836
2285.0, 0.930417
2295.0, 0.932891
2305.0, 0.922250
2315.0, 0.911611
2325.0, 0.893866
2335.0, 0.880706
2345.0, 0.888235
2355.0, 0.884246
2365.0, 0.880912
2375.0, 0.866080
2386.0, 0.868547
2400.0, 0.870523
2418.0, 0.844834
2440.0, 0.833437
2466.0, 0.799312
2496.0, 0.746046
2528.0, 0.665240
2560.0, 0.656038
2592.0, 0.734183
2624.0, 0.728187
2656.0, 0.762695
2688.0, 0.733736
2720.0, 0.638575
2752.0, 0.194265
2784.0, 0.500390
2816.0, 0.529953
2848.0, 0.514988
2880.0, 0.603167
2912.0, 0.569378
2944.0, 0.570406
2976.0, 0.582144
