Database of Origin,USGS Spectral Database
Sample Description,See USGS database for additional info
Date Added,2017-02-22 02:49:17.663727

Data ID,USGS_sti04          
Sample ID,stilbite_hs482.21291
Mineral Name,stilbite

Wavelength
1574.77, 0.274936
1575.25, 0.274304
1575.73, 0.274665
1576.21, 0.275342
1576.69, 0.275613
1577.17, 0.274890
1577.65, 0.274981
1578.13, 0.275252
1578.61, 0.275297
1579.09, 0.275071
1579.57, 0.275161
1580.05, 0.275252
1580.54, 0.275613
1581.02, 0.275071
1581.5, 0.274710
1581.98, 0.274259
1582.47, 0.274710
1582.95, 0.275161
1583.43, 0.275522
1583.92, 0.275522
1584.4, 0.275567
1584.88, 0.275387
1585.37, 0.275252
1585.85, 0.274665
1586.34, 0.274710
1586.82, 0.275387
1587.31, 0.275477
1587.8, 0.275116
1588.28, 0.275748
1588.77, 0.276154
1589.26, 0.276154
1589.74, 0.275477
1590.23, 0.275748
1590.72, 0.275928
1591.21, 0.276290
1591.7, 0.276109
1592.19, 0.275928
1592.67, 0.275748
1593.16, 0.276154
1593.65, 0.276244
1594.14, 0.276335
1594.63, 0.276154
1595.12, 0.276335
1595.61, 0.276154
1596.11, 0.276109
1596.6, 0.275883
1597.09, 0.276109
1597.58, 0.276335
1598.08, 0.276741
1598.57, 0.276470
1599.06, 0.276515
1599.55, 0.277012
1600.05, 0.277373
1600.54, 0.277057
1601.04, 0.277102
1601.53, 0.276831
1602.03, 0.276876
1602.52, 0.276786
1603.02, 0.277102
1603.51, 0.277282
1604.01, 0.277598
1604.5, 0.277463
1605.0, 0.277508
1605.5, 0.277553
1606.0, 0.278050
1606.49, 0.277959
1606.99, 0.277824
1607.49, 0.277689
1607.99, 0.277869
1608.49, 0.277689
1608.99, 0.277689
1609.49, 0.277869
1609.99, 0.278275
1610.49, 0.278140
1610.99, 0.278230
1611.49, 0.278501
1611.99, 0.278772
1612.49, 0.278546
1612.99, 0.278591
1613.49, 0.278636
1614.0, 0.279088
1614.5, 0.279043
1615.0, 0.279268
1615.51, 0.279268
1616.01, 0.279449
1616.51, 0.279223
1617.02, 0.279043
1617.52, 0.278817
1618.03, 0.279223
1618.53, 0.279223
1619.04, 0.279268
1619.54, 0.279043
1620.05, 0.279358
1620.55, 0.279674
1621.06, 0.279990
1621.57, 0.279765
1622.08, 0.279945
1622.58, 0.279674
1623.09, 0.279629
1623.6, 0.279765
1624.11, 0.279945
1624.62, 0.279900
1625.13, 0.280081
1625.64, 0.280081
1626.15, 0.280442
1626.66, 0.280848
1627.17, 0.280938
1627.68, 0.280667
1628.19, 0.280532
1628.7, 0.280081
1629.21, 0.280081
1629.72, 0.280261
1630.24, 0.281119
1630.75, 0.281254
1631.26, 0.281119
1631.78, 0.280757
1632.29, 0.280983
1632.8, 0.280757
1633.32, 0.280667
1633.83, 0.280667
1634.35, 0.280757
1634.86, 0.280893
1635.38, 0.281389
1635.9, 0.281119
1636.41, 0.281254
1636.93, 0.281164
1637.45, 0.281209
1637.96, 0.281119
1638.48, 0.281299
1639.0, 0.281164
1639.52, 0.281525
1640.04, 0.281570
1640.56, 0.281434
1641.08, 0.281299
1641.59, 0.281389
1642.11, 0.281209
1642.63, 0.281705
1643.16, 0.281931
1643.68, 0.281886
1644.2, 0.281480
1644.72, 0.281480
1645.24, 0.281480
1645.76, 0.281931
1646.29, 0.282021
1646.81, 0.282157
1647.33, 0.281976
1647.86, 0.281705
1648.38, 0.281705
1648.9, 0.281931
1649.43, 0.281841
1649.95, 0.282157
1650.48, 0.282427
1651.0, 0.282382
1651.53, 0.281976
1652.06, 0.282111
1652.58, 0.282111
1653.11, 0.282337
1653.64, 0.282382
1654.17, 0.282472
1654.69, 0.282382
1655.22, 0.282788
1655.75, 0.282608
1656.28, 0.282653
1656.81, 0.282879
1657.34, 0.283059
1657.87, 0.282834
1658.4, 0.283014
1658.93, 0.282788
1659.46, 0.282743
1659.99, 0.282879
1660.52, 0.283149
1661.05, 0.282788
1661.59, 0.283059
1662.12, 0.283420
1662.65, 0.283285
1663.19, 0.283014
1663.72, 0.283149
1664.26, 0.282969
1664.79, 0.283195
1665.32, 0.283104
1665.86, 0.283104
1666.39, 0.283285
1666.93, 0.283556
1667.47, 0.283375
1668.0, 0.283510
1668.54, 0.283510
1669.08, 0.283736
1669.61, 0.283962
1670.15, 0.284052
1670.69, 0.284052
1671.23, 0.284232
1671.77, 0.284097
1672.31, 0.284187
1672.85, 0.284368
1673.39, 0.284368
1673.93, 0.283962
1674.47, 0.284323
1675.01, 0.284503
1675.55, 0.284368
1676.09, 0.284142
1676.64, 0.284684
1677.18, 0.284955
1677.72, 0.285000
1678.26, 0.284594
1678.81, 0.284548
1679.35, 0.284503
1679.89, 0.284684
1680.44, 0.284819
1680.98, 0.285000
1681.53, 0.284864
1682.07, 0.285180
1682.62, 0.285045
1683.17, 0.285000
1683.71, 0.284909
1684.26, 0.284955
1684.81, 0.284729
1685.36, 0.285000
1685.9, 0.285180
1686.45, 0.285090
1687.0, 0.284819
1687.55, 0.285225
1688.1, 0.285271
1688.65, 0.285225
1689.2, 0.285090
1689.75, 0.285316
1690.3, 0.285541
1690.85, 0.285316
1691.41, 0.284729
1691.96, 0.284594
1692.51, 0.284503
1693.06, 0.284503
1693.61, 0.284639
1694.17, 0.285135
1694.72, 0.285045
1695.28, 0.284864
1695.83, 0.284684
1696.39, 0.284864
1696.94, 0.284684
1697.5, 0.284413
1698.05, 0.284142
1698.61, 0.284097
1699.17, 0.284007
1699.72, 0.284007
1700.28, 0.283826
1700.84, 0.283872
1701.4, 0.283917
1701.95, 0.283736
1702.51, 0.283330
1703.07, 0.283601
1703.63, 0.283601
1704.19, 0.283420
1704.75, 0.283149
1705.31, 0.283330
1705.88, 0.283240
1706.44, 0.283014
1707.0, 0.282788
1707.56, 0.282834
1708.12, 0.282788
1708.69, 0.282924
1709.25, 0.282879
1709.81, 0.282382
1710.38, 0.282021
1710.94, 0.281976
1711.51, 0.281931
1712.07, 0.282066
1712.64, 0.281660
1713.2, 0.281525
1713.77, 0.281525
1714.34, 0.281525
1714.9, 0.281209
1715.47, 0.281028
1716.04, 0.280803
1716.61, 0.280487
1717.18, 0.280306
1717.74, 0.280396
1718.31, 0.280081
1718.88, 0.279900
1719.45, 0.279629
1720.02, 0.279449
1720.59, 0.279358
1721.17, 0.279358
1721.74, 0.278907
1722.31, 0.278952
1722.88, 0.278727
1723.45, 0.278320
1724.03, 0.278140
1724.6, 0.278095
1725.18, 0.277689
1725.75, 0.277643
1726.33, 0.277147
1726.9, 0.277012
1727.48, 0.277057
1728.05, 0.276966
1728.63, 0.276605
1729.2, 0.276651
1729.78, 0.276425
1730.36, 0.276019
1730.94, 0.275613
1731.51, 0.275613
1732.09, 0.275567
1732.67, 0.275613
1733.25, 0.275477
1733.83, 0.275432
1734.41, 0.274936
1734.99, 0.274620
1735.57, 0.274349
1736.15, 0.274529
1736.73, 0.274304
1737.32, 0.274078
1737.9, 0.273988
1738.48, 0.274168
1739.07, 0.273943
1739.65, 0.273807
1740.23, 0.273717
1740.82, 0.273582
1741.4, 0.273040
1741.99, 0.272860
1742.57, 0.272724
1743.16, 0.272814
1743.74, 0.272724
1744.33, 0.272634
1744.92, 0.272408
1745.51, 0.272499
1746.09, 0.272228
1746.68, 0.272183
1747.27, 0.272047
1747.86, 0.271957
1748.45, 0.271912
1749.04, 0.272092
1749.63, 0.271957
1750.22, 0.271912
1750.81, 0.271641
1751.4, 0.271461
1751.99, 0.271551
1752.59, 0.271822
1753.18, 0.271641
1753.77, 0.271506
1754.37, 0.271325
1754.96, 0.271506
1755.56, 0.271280
1756.15, 0.271370
1756.74, 0.271551
1757.34, 0.271596
1757.94, 0.271415
1758.53, 0.271506
1759.13, 0.271506
1759.73, 0.271280
1760.32, 0.271145
1760.92, 0.271235
1761.52, 0.271145
1762.12, 0.271190
1762.72, 0.271145
1763.32, 0.271235
1763.92, 0.271325
1764.52, 0.271325
1765.12, 0.271100
1765.72, 0.271100
1766.32, 0.271100
1766.92, 0.271145
1767.53, 0.271054
1768.13, 0.271009
1768.73, 0.270829
1769.34, 0.270919
1769.94, 0.270693
1770.55, 0.270648
1771.15, 0.270874
1771.76, 0.270874
1772.36, 0.270558
1772.97, 0.270693
1773.57, 0.270603
1774.18, 0.270468
1774.79, 0.270377
1775.4, 0.270468
1776.0, 0.270332
1776.61, 0.270377
1777.22, 0.270513
1777.83, 0.270603
1778.44, 0.270377
1779.05, 0.270423
1779.66, 0.270332
1780.27, 0.270197
1780.88, 0.269926
1781.5, 0.269971
1782.11, 0.270107
1782.72, 0.270107
1783.33, 0.269791
1783.95, 0.269836
1784.56, 0.269926
1785.18, 0.270016
1785.79, 0.270016
1786.41, 0.269836
1787.02, 0.269430
1787.64, 0.269475
1788.26, 0.269430
1788.87, 0.269475
1789.49, 0.269430
1790.11, 0.269294
1790.73, 0.269159
1791.35, 0.269294
1791.96, 0.269204
1792.58, 0.269159
1793.21, 0.269114
1793.83, 0.269249
1794.45, 0.268888
1795.07, 0.268708
1795.69, 0.268662
1796.31, 0.268753
1796.93, 0.268572
1797.56, 0.268482
1798.18, 0.268392
1798.8, 0.268572
1799.43, 0.268392
1800.05, 0.268211
1800.68, 0.268166
1801.3, 0.268256
1801.93, 0.267895
1802.56, 0.267624
1803.18, 0.267444
1803.81, 0.267624
1804.44, 0.267670
1805.07, 0.267624
1805.7, 0.267489
1806.33, 0.267444
1806.95, 0.267399
1807.58, 0.267444
1808.22, 0.267399
1808.85, 0.267354
1809.48, 0.267083
1810.11, 0.267083
1810.74, 0.267038
1811.38, 0.267083
1812.01, 0.266857
1812.64, 0.266722
1813.28, 0.266767
1813.91, 0.266812
1814.55, 0.266586
1815.18, 0.266586
1815.82, 0.266406
1816.45, 0.266451
1817.09, 0.266496
1817.73, 0.266406
1818.36, 0.266135
1819.0, 0.266135
1819.64, 0.266225
1820.28, 0.266090
1820.92, 0.265864
1821.56, 0.265910
1822.2, 0.265684
1822.84, 0.265594
1823.48, 0.265594
1824.12, 0.265819
1824.76, 0.265819
1825.41, 0.265639
1826.05, 0.265187
1826.69, 0.264962
1827.34, 0.264917
1827.98, 0.265007
1828.63, 0.264872
1829.27, 0.264917
1829.92, 0.264917
1830.56, 0.264781
1831.21, 0.264285
1831.86, 0.264375
1832.5, 0.264375
1833.15, 0.264195
1833.8, 0.264195
1834.45, 0.264240
1835.1, 0.263879
1835.75, 0.263427
1836.4, 0.262931
1837.05, 0.263066
1837.7, 0.262750
1838.35, 0.262525
1839.01, 0.262389
1839.66, 0.261983
1840.31, 0.261577
1840.96, 0.261848
1841.62, 0.261577
1842.27, 0.261261
1842.93, 0.261035
1843.58, 0.260855
1844.24, 0.260539
1844.9, 0.260358
1845.55, 0.260133
1846.21, 0.259862
1846.87, 0.258959
1847.53, 0.258463
1848.18, 0.258282
1848.84, 0.258102
1849.5, 0.257786
1850.16, 0.257380
1850.82, 0.256838
1851.48, 0.256387
1852.14, 0.256026
1852.81, 0.255710
1853.47, 0.254898
1854.13, 0.254130
1854.8, 0.253589
1855.46, 0.253228
1856.12, 0.252641
1856.79, 0.252009
1857.45, 0.251513
1858.12, 0.251107
1858.79, 0.250430
1859.45, 0.249437
1860.12, 0.248354
1860.79, 0.247586
1861.46, 0.246819
1862.12, 0.246097
1862.79, 0.245240
1863.46, 0.244427
1864.13, 0.243389
1864.8, 0.242396
1865.48, 0.241449
1866.15, 0.240681
1866.82, 0.239643
1867.49, 0.238244
1868.16, 0.236981
1868.84, 0.235988
1869.51, 0.234724
1870.19, 0.233506
1870.86, 0.231881
1871.54, 0.230482
1872.21, 0.229128
1872.89, 0.227458
1873.56, 0.225698
1874.24, 0.224254
1874.92, 0.222584
1875.6, 0.221140
1876.28, 0.219380
1876.96, 0.217349
1877.64, 0.215408
1878.32, 0.213603
1879.0, 0.211392
1879.68, 0.209406
1880.36, 0.207195
1881.04, 0.204893
1881.73, 0.202320
1882.41, 0.199838
1883.09, 0.197356
1883.78, 0.194603
1884.46, 0.191670
1885.15, 0.188962
1885.83, 0.186073
1886.52, 0.183230
1887.21, 0.180161
1887.89, 0.177183
1888.58, 0.173798
1889.27, 0.170458
1889.96, 0.166983
1890.65, 0.163553
1891.34, 0.159988
1892.03, 0.156197
1892.72, 0.152406
1893.41, 0.148841
1894.1, 0.144914
1894.79, 0.141123
1895.49, 0.137378
1896.18, 0.133541
1896.87, 0.129750
1897.57, 0.126140
1898.26, 0.122304
1898.96, 0.118784
1899.65, 0.115264
1900.35, 0.111969
1901.05, 0.108674
1901.74, 0.105696
1902.44, 0.102717
1903.14, 0.0999640
1903.84, 0.0973470
1904.54, 0.0952260
1905.24, 0.0930590
1905.94, 0.0910740
1906.64, 0.0892230
1907.34, 0.0875980
1908.04, 0.0859290
1908.75, 0.0848460
1909.45, 0.0836720
1910.15, 0.0824990
1910.86, 0.0814160
1911.56, 0.0806480
1912.27, 0.0799710
1912.97, 0.0793400
1913.68, 0.0786630
1914.39, 0.0785270
1915.09, 0.0783920
1915.8, 0.0781660
1916.51, 0.0780760
1917.22, 0.0782560
1917.93, 0.0782560
1918.64, 0.0783920
1919.35, 0.0787080
1920.06, 0.0791590
1920.77, 0.0795200
1921.48, 0.0800620
1922.19, 0.0805580
1922.91, 0.0813250
1923.62, 0.0820470
1924.33, 0.0828150
1925.05, 0.0834920
1925.76, 0.0844390
1926.48, 0.0853420
1927.19, 0.0863350
1927.91, 0.0872830
1928.63, 0.0880950
1929.35, 0.0890880
1930.07, 0.0902610
1930.78, 0.0912540
1931.5, 0.0924730
1932.22, 0.0934650
1932.94, 0.0945940
1933.66, 0.0955870
1934.39, 0.0967150
1935.11, 0.0977080
1935.83, 0.0987010
1936.55, 0.0996930
1937.28, 0.100912
1938.0, 0.101905
1938.73, 0.103033
1939.45, 0.104071
1940.18, 0.105109
1940.9, 0.106057
1941.63, 0.106914
1942.36, 0.107907
1943.09, 0.108855
1943.81, 0.109622
1944.54, 0.110615
1945.27, 0.111473
1946.0, 0.112601
1946.73, 0.113368
1947.47, 0.114135
1948.2, 0.114993
1948.93, 0.115895
1949.66, 0.116617
1950.4, 0.117385
1951.13, 0.118017
1951.86, 0.118829
1952.6, 0.119506
1953.34, 0.120363
1954.07, 0.121131
1954.81, 0.121762
1955.55, 0.122394
1956.29, 0.123161
1957.02, 0.123748
1957.76, 0.124335
1958.5, 0.124922
1959.24, 0.125779
1959.98, 0.126366
1960.72, 0.126907
1961.47, 0.127313
1962.21, 0.128036
1962.95, 0.128667
1963.7, 0.129344
1964.44, 0.129931
1965.18, 0.130608
1965.93, 0.131059
1966.67, 0.131691
1967.42, 0.132278
1968.17, 0.132864
1968.92, 0.133316
1969.66, 0.133812
1970.41, 0.134128
1971.16, 0.134805
1971.91, 0.135572
1972.66, 0.136340
1973.41, 0.136881
1974.16, 0.137332
1974.92, 0.137784
1975.67, 0.138325
1976.42, 0.138867
1977.18, 0.139408
1977.93, 0.139950
1978.69, 0.140717
1979.44, 0.141394
1980.2, 0.142116
1980.95, 0.142748
1981.71, 0.143335
1982.47, 0.143921
1983.23, 0.144463
1983.99, 0.144960
1984.74, 0.145862
1985.51, 0.146629
1986.27, 0.147081
1987.03, 0.147532
1987.79, 0.148344
1988.55, 0.149111
1989.32, 0.149743
1990.08, 0.150375
1990.84, 0.151233
1991.61, 0.151910
1992.37, 0.152541
1993.14, 0.153264
1993.9, 0.154211
1994.67, 0.154888
1995.44, 0.155610
1996.21, 0.156242
1996.98, 0.157145
1997.75, 0.157957
1998.52, 0.158724
1999.29, 0.159401
2000.06, 0.160394
2000.83, 0.161252
2001.6, 0.162064
2002.38, 0.162741
2003.15, 0.163463
2003.93, 0.164321
2004.7, 0.165359
2005.48, 0.166081
2006.25, 0.166938
2007.03, 0.167750
2007.81, 0.168473
2008.58, 0.169285
2009.36, 0.170233
2010.14, 0.171180
2010.92, 0.171993
2011.7, 0.172625
2012.48, 0.173437
2013.26, 0.174249
2014.05, 0.175242
2014.83, 0.176054
2015.61, 0.176777
2016.4, 0.177454
2017.18, 0.178401
2017.97, 0.179214
2018.75, 0.180026
2019.54, 0.180838
2020.32, 0.181606
2021.11, 0.182237
2021.9, 0.183005
2022.69, 0.183772
2023.48, 0.184584
2024.27, 0.185261
2025.06, 0.186073
2025.85, 0.186660
2026.64, 0.187518
2027.44, 0.188240
2028.23, 0.188917
2029.02, 0.189549
2029.82, 0.190271
2030.61, 0.190857
2031.41, 0.191534
2032.2, 0.192211
2033.0, 0.192978
2033.8, 0.193565
2034.6, 0.194197
2035.4, 0.194603
2036.2, 0.195100
2037.0, 0.195641
2037.8, 0.196273
2038.6, 0.196950
2039.4, 0.197627
2040.2, 0.198078
2041.01, 0.198620
2041.81, 0.198891
2042.61, 0.199342
2043.42, 0.199748
2044.22, 0.200290
2045.03, 0.200831
2045.84, 0.201328
2046.65, 0.201689
2047.46, 0.202185
2048.26, 0.202546
2049.07, 0.202952
2049.88, 0.203223
2050.69, 0.203720
2051.51, 0.204171
2052.32, 0.204487
2053.13, 0.204577
2053.94, 0.204848
2054.76, 0.205073
2055.57, 0.205570
2056.39, 0.206111
2057.2, 0.206518
2058.02, 0.206608
2058.84, 0.206969
2059.66, 0.207104
2060.48, 0.207195
2061.29, 0.207420
2062.11, 0.207872
2062.94, 0.208142
2063.76, 0.208413
2064.58, 0.208639
2065.4, 0.208819
2066.22, 0.208864
2067.05, 0.209090
2067.87, 0.209316
2068.7, 0.209632
2069.52, 0.209812
2070.35, 0.209857
2071.18, 0.209722
2072.0, 0.209902
2072.83, 0.210128
2073.66, 0.210534
2074.49, 0.210850
2075.32, 0.211031
2076.15, 0.210986
2076.98, 0.211166
2077.82, 0.211301
2078.65, 0.211527
2079.48, 0.211708
2080.32, 0.211753
2081.15, 0.211888
2081.99, 0.212204
2082.83, 0.212430
2083.66, 0.212520
2084.5, 0.212655
2085.34, 0.212926
2086.18, 0.212926
2087.02, 0.213062
2087.86, 0.213377
2088.7, 0.213693
2089.54, 0.213919
2090.39, 0.214145
2091.23, 0.214280
2092.07, 0.214551
2092.92, 0.214777
2093.76, 0.214957
2094.61, 0.215047
2095.45, 0.215318
2096.3, 0.215499
2097.15, 0.215769
2098.0, 0.215995
2098.85, 0.216311
2099.7, 0.216627
2100.55, 0.216988
2101.4, 0.217078
2102.25, 0.217259
2103.1, 0.217529
2103.96, 0.217891
2104.81, 0.218071
2105.67, 0.218252
2106.52, 0.218387
2107.38, 0.218613
2108.24, 0.218793
2109.09, 0.219109
2109.95, 0.219290
2110.81, 0.219606
2111.67, 0.219831
2112.53, 0.220012
2113.39, 0.220192
2114.25, 0.220463
2115.12, 0.220644
2115.98, 0.220914
2116.84, 0.221185
2117.71, 0.221546
2118.58, 0.221501
2119.44, 0.221546
2120.31, 0.221907
2121.18, 0.222449
2122.04, 0.222629
2122.91, 0.222674
2123.78, 0.222810
2124.65, 0.223216
2125.52, 0.223442
2126.4, 0.223667
2127.27, 0.223758
2128.14, 0.223938
2129.02, 0.224119
2129.89, 0.224389
2130.77, 0.224480
2131.64, 0.224660
2132.52, 0.224886
2133.4, 0.225066
2134.27, 0.225202
2135.15, 0.225563
2136.03, 0.225788
2136.91, 0.225969
2137.79, 0.226149
2138.68, 0.226375
2139.56, 0.226330
2140.44, 0.226601
2141.33, 0.226781
2142.21, 0.226872
2143.1, 0.227007
2143.99, 0.227503
2144.87, 0.227594
2145.76, 0.227548
2146.65, 0.227594
2147.54, 0.227864
2148.43, 0.228135
2149.32, 0.228271
2150.21, 0.228135
2151.1, 0.228316
2151.99, 0.228632
2152.89, 0.228948
2153.78, 0.229038
2154.68, 0.229083
2155.57, 0.229218
2156.47, 0.229489
2157.37, 0.229444
2158.27, 0.229489
2159.16, 0.229579
2160.06, 0.229715
2160.96, 0.229895
2161.86, 0.230076
2162.77, 0.230031
2163.67, 0.230211
2164.57, 0.230301
2165.48, 0.230617
2166.38, 0.230708
2167.29, 0.230798
2168.2, 0.230798
2169.1, 0.231114
2170.01, 0.231114
2170.92, 0.231024
2171.83, 0.231249
2172.74, 0.231430
2173.65, 0.231385
2174.56, 0.231520
2175.47, 0.231655
2176.39, 0.231746
2177.3, 0.231746
2178.22, 0.231836
2179.13, 0.231836
2180.05, 0.231926
2180.96, 0.231881
2181.88, 0.232062
2182.8, 0.232152
2183.72, 0.232332
2184.64, 0.232377
2185.56, 0.232377
2186.48, 0.232287
2187.41, 0.232377
2188.33, 0.232468
2189.25, 0.232468
2190.18, 0.232377
2191.1, 0.232468
2192.03, 0.232513
2192.96, 0.232603
2193.89, 0.232693
2194.82, 0.232693
2195.74, 0.232693
2196.68, 0.232739
2197.61, 0.232784
2198.54, 0.232829
2199.47, 0.232829
2200.4, 0.232874
2201.34, 0.232874
2202.28, 0.232919
2203.21, 0.232874
2204.15, 0.232874
2205.08, 0.232693
2206.02, 0.232784
2206.96, 0.232874
2207.9, 0.232964
2208.84, 0.232874
2209.78, 0.232874
2210.73, 0.232874
2211.67, 0.232919
2212.61, 0.232874
2213.56, 0.232964
2214.5, 0.232829
2215.45, 0.232919
2216.4, 0.233054
2217.35, 0.232964
2218.3, 0.232739
2219.24, 0.232784
2220.2, 0.232919
2221.15, 0.232964
2222.1, 0.232874
2223.05, 0.232964
2224.0, 0.232874
2224.96, 0.232919
2225.91, 0.232874
2226.87, 0.232829
2227.83, 0.232784
2228.79, 0.232874
2229.74, 0.232693
2230.7, 0.232648
2231.66, 0.232693
2232.63, 0.232739
2233.59, 0.232423
2234.55, 0.232377
2235.51, 0.232423
2236.48, 0.232558
2237.44, 0.232468
2238.41, 0.232423
2239.38, 0.232242
2240.34, 0.232197
2241.31, 0.232152
2242.28, 0.232242
2243.25, 0.232107
2244.22, 0.232016
2245.19, 0.231881
2246.17, 0.231881
2247.14, 0.231746
2248.12, 0.231610
2249.09, 0.231565
2250.07, 0.231520
2251.04, 0.231249
2252.02, 0.231204
2253.0, 0.230978
2253.98, 0.230843
2254.96, 0.230843
2255.94, 0.230753
2256.92, 0.230347
2257.91, 0.230256
2258.89, 0.230301
2259.88, 0.230256
2260.86, 0.229940
2261.85, 0.229805
2262.83, 0.229489
2263.82, 0.229309
2264.81, 0.229354
2265.8, 0.229309
2266.79, 0.228993
2267.78, 0.228812
2268.78, 0.228451
2269.77, 0.228271
2270.76, 0.228180
2271.76, 0.227955
2272.75, 0.227639
2273.75, 0.227458
2274.75, 0.227097
2275.75, 0.226872
2276.75, 0.226601
2277.75, 0.226285
2278.75, 0.225924
2279.75, 0.225698
2280.75, 0.225337
2281.76, 0.225066
2282.76, 0.224705
2283.77, 0.224434
2284.77, 0.224119
2285.78, 0.223803
2286.79, 0.223396
2287.8, 0.222945
2288.81, 0.222515
2289.82, 0.222085
2290.83, 0.221381
2291.84, 0.220834
2292.86, 0.220482
2293.87, 0.220091
2294.89, 0.219700
2295.91, 0.219387
2296.92, 0.218762
2297.94, 0.218136
2298.96, 0.217471
2299.98, 0.216885
2301.0, 0.216494
2302.02, 0.215985
2303.04, 0.215516
2304.07, 0.215008
2305.09, 0.214422
2306.12, 0.213952
2307.15, 0.213170
2308.17, 0.212349
2309.2, 0.211802
2310.23, 0.211372
2311.26, 0.210942
2312.29, 0.210355
2313.32, 0.209495
2314.35, 0.208791
2315.39, 0.208166
2316.42, 0.207423
2317.46, 0.206797
2318.5, 0.206132
2319.53, 0.205350
2320.57, 0.204647
2321.61, 0.203747
2322.65, 0.202770
2323.69, 0.201871
2324.73, 0.201010
2325.78, 0.200268
2326.82, 0.199525
2327.86, 0.198625
2328.91, 0.197843
2329.96, 0.196827
2331.01, 0.195771
2332.05, 0.194715
2333.1, 0.194012
2334.15, 0.193230
2335.21, 0.192096
2336.26, 0.191118
2337.31, 0.190063
2338.36, 0.188929
2339.42, 0.187990
2340.48, 0.187052
2341.53, 0.186309
2342.59, 0.185292
2343.65, 0.184393
2344.71, 0.183416
2345.77, 0.182399
2346.83, 0.181226
2347.9, 0.180170
2348.96, 0.179271
2350.02, 0.178567
2351.09, 0.177707
2352.16, 0.176769
2353.23, 0.175752
2354.29, 0.174892
2355.36, 0.174032
2356.43, 0.172937
2357.51, 0.171647
2358.58, 0.170513
2359.65, 0.169418
2360.73, 0.168245
2361.8, 0.166955
2362.88, 0.165860
2363.96, 0.164882
2365.03, 0.163592
2366.11, 0.162263
2367.19, 0.161129
2368.27, 0.159956
2369.36, 0.158822
2370.44, 0.157375
2371.53, 0.155968
2372.61, 0.154638
2373.7, 0.153387
2374.78, 0.152097
2375.87, 0.150768
2376.96, 0.149477
2378.05, 0.148187
2379.14, 0.146858
2380.24, 0.145528
2381.33, 0.144199
2382.42, 0.143065
2383.52, 0.141736
2384.61, 0.140328
2385.71, 0.138647
2386.81, 0.137239
2387.91, 0.136027
2389.01, 0.134815
2390.11, 0.133525
2391.22, 0.132156
2392.32, 0.130631
2393.42, 0.129458
2394.53, 0.128403
2395.64, 0.127151
2396.74, 0.125744
2397.85, 0.124532
2398.96, 0.123437
2400.07, 0.122342
2401.18, 0.120974
2402.3, 0.119957
2403.41, 0.119019
2404.52, 0.117846
2405.64, 0.116673
2406.76, 0.115461
2407.88, 0.114366
2408.99, 0.113310
2410.11, 0.112528
2411.23, 0.111629
2412.36, 0.110534
2413.48, 0.109557
2414.6, 0.108579
2415.73, 0.107563
2416.85, 0.106585
2417.98, 0.105608
2419.11, 0.105021
2420.24, 0.104356
2421.37, 0.103418
2422.5, 0.102558
2423.64, 0.101815
2424.77, 0.101072
2425.9, 0.100368
2427.04, 0.0997820
2428.18, 0.0991560
2429.31, 0.0985310
2430.45, 0.0979050
2431.59, 0.0973580
2432.73, 0.0966930
2433.88, 0.0959890
2435.02, 0.0953640
2436.16, 0.0949730
2437.31, 0.0946210
2438.45, 0.0941120
2439.6, 0.0934480
2440.75, 0.0930180
2441.9, 0.0926660
2443.05, 0.0921570
2444.2, 0.0917270
2445.35, 0.0912580
2446.51, 0.0908280
2447.67, 0.0903200
2448.82, 0.0899290
2449.98, 0.0896550
2451.14, 0.0893420
2452.3, 0.0889510
2453.46, 0.0886780
2454.62, 0.0884040
2455.78, 0.0878960
2456.94, 0.0875050
2458.11, 0.0871530
2459.28, 0.0869570
2460.44, 0.0865270
2461.61, 0.0859410
2462.78, 0.0855500
2463.95, 0.0852370
2465.12, 0.0848850
2466.3, 0.0846890
2467.47, 0.0843770
2468.65, 0.0840250
2469.82, 0.0835950
2471.0, 0.0832040
2472.18, 0.0828910
2473.36, 0.0826560
2474.54, 0.0823830
2475.72, 0.0820310
2476.9, 0.0816010
2478.08, 0.0810920
2479.27, 0.0807400
2480.46, 0.0805450
2481.64, 0.0801540
2482.83, 0.0797240
2484.02, 0.0794110
2485.21, 0.0792160
2486.4, 0.0788250
2487.6, 0.0785120
2488.79, 0.0780030
2489.99, 0.0774560
2491.18, 0.0769870
2492.38, 0.0765960
2493.58, 0.0763220
2494.78, 0.0761270
2495.98, 0.0757750
2497.18, 0.0755400
2498.39, 0.0751490
2499.59, 0.0746410
2500.8, 0.0740940
2502.01, 0.0737420
2503.21, 0.0735070
2504.42, 0.0732720
2505.63, 0.0726860
2506.84, 0.0722560
2508.06, 0.0719430
2509.27, 0.0717080
2510.49, 0.0713170
2511.7, 0.0708870
2512.92, 0.0704180
2514.14, 0.0701050
2515.36, 0.0698320
2516.58, 0.0695970
2517.8, 0.0691280
2519.03, 0.0688150
2520.25, 0.0685020
2521.48, 0.0681500
2522.7, 0.0675640
2523.93, 0.0670160
2525.16, 0.0668210
2526.39, 0.0666260
2527.62, 0.0659610
2528.86, 0.0654530
2530.09, 0.0651010
2531.33, 0.0648270
2532.56, 0.0646310
2533.8, 0.0643970
2535.04, 0.0640840
2536.28, 0.0634980
2537.52, 0.0631850
2538.76, 0.0631460
2540.01, 0.0627940
2541.25, 0.0623640
2542.5, 0.0619730
2543.75, 0.0617380
2544.99, 0.0616990
2546.24, 0.0616990
2547.49, 0.0616210
2548.75, 0.0615430
2550.0, 0.0612300
2551.26, 0.0608780
2552.51, 0.0607210
2553.77, 0.0609170
2555.03, 0.0608780
2556.29, 0.0606820
2557.55, 0.0603700
2558.81, 0.0600570
2560.08, 0.0593920
2561.34, 0.0587670
2562.61, 0.0586880
2563.88, 0.0586100
2565.14, 0.0586100
2566.41, 0.0587270
2567.68, 0.0586880
2568.96, 0.0582970
2570.23, 0.0580630
2571.51, 0.0582190
2572.78, 0.0575940
2574.06, 0.0572030
2575.34, 0.0573200
2576.62, 0.0570850
2577.9, 0.0570070
2579.18, 0.0570460
2580.47, 0.0567330
2581.75, 0.0563030
2583.04, 0.0556390
2584.32, 0.0553650
2585.61, 0.0555600
2586.9, 0.0552870
2588.2, 0.0551690
2589.49, 0.0552870
2590.78, 0.0552870
2592.08, 0.0549350
2593.37, 0.0538400
2594.67, 0.0526670
2595.97, 0.0530970
2597.27, 0.0540350
2598.57, 0.0542310
2599.88, 0.0539180
2601.18, 0.0535270
2602.49, 0.0530970
2603.79, 0.0526280
2605.1, 0.0521200
2606.41, 0.0520410
2607.72, 0.0522760
2609.03, 0.0521980
2610.35, 0.0521200
2611.66, 0.0520410
2612.98, 0.0519240
2614.3, 0.0517680
2615.62, 0.0511030
2616.94, 0.0505170
2618.26, 0.0505170
2619.58, 0.0501260
2620.91, 0.0498910
2622.23, 0.0501650
2623.56, 0.0500860
2624.89, 0.0496170
2626.22, 0.0489130
2627.55, 0.0486790
2628.88, 0.0484050
2630.21, 0.0476620
2631.55, 0.0476230
2632.89, 0.0475840
2634.22, 0.0474280
2635.56, 0.0473890
2636.9, 0.0470370
2638.25, 0.0466850
2639.59, 0.0464500
2640.93, 0.0462160
2642.28, 0.0458640
2643.63, 0.0454340
2644.98, 0.0448470
2646.33, 0.0445340
2647.68, 0.0443000
2649.03, 0.0440650
2650.39, 0.0437910
2651.74, 0.0429700
2653.1, 0.0423840
2654.46, 0.0423450
2655.82, 0.0419930
2657.18, 0.0415630
2658.54, 0.0410540
2659.9, 0.0405460
2661.27, 0.0401550
2662.64, 0.0395690
2664.01, 0.0387870
2665.38, 0.0379660
2666.74, 0.0374570
2668.12, 0.0374570
2669.49, 0.0367540
2670.87, 0.0361280
2672.24, 0.0363630
2673.62, 0.0361670
2675.0, 0.0355410
2676.38, 0.0346420
2677.76, 0.0342510
2679.15, 0.0339770
2680.54, 0.0338990
2681.92, 0.0335860
2683.31, 0.0329610
2684.7, 0.0324130
2686.09, 0.0318660
2687.48, 0.0313580
2688.88, 0.0308490
2690.27, 0.0304580
2691.67, 0.0298720
2693.07, 0.0291290
2694.47, 0.0284640
2695.87, 0.0281910
2697.27, 0.0279170
2698.67, 0.0274480
2700.08, 0.0269400
2701.49, 0.0263530
2702.9, 0.0259620
2704.31, 0.0255320
2705.72, 0.0251020
2707.13, 0.0245150
2708.54, 0.0238900
2709.96, 0.0232250
2711.38, 0.0227170
2712.8, 0.0225210
2714.22, 0.0223650
2715.64, 0.0220130
2717.06, 0.0215050
2718.49, 0.0208790
2719.91, 0.0202140
2721.34, 0.0199020
2722.77, 0.0195500
2724.2, 0.0190020
2725.63, 0.0188460
2727.07, 0.0186900
2728.5, 0.0184550
2729.94, 0.0181810
2731.38, 0.0179080
2732.82, 0.0175950
2734.26, 0.0170860
2735.7, 0.0166560
2737.15, 0.0164610
2738.59, 0.0161090
2740.04, 0.0156790
2741.49, 0.0155220
2742.94, 0.0154830
2744.39, 0.0154050
2745.84, 0.0153270
2747.3, 0.0150920
2748.76, 0.0148970
2750.21, 0.0146230
2751.67, 0.0143890
2753.14, 0.0143890
2754.6, 0.0143100
2756.06, 0.0141150
2757.53, 0.0141930
2759.0, 0.0141930
2760.46, 0.0140370
2761.94, 0.0138020
2763.41, 0.0136460
2764.88, 0.0136460
2766.36, 0.0136460
2767.83, 0.0135680
2769.31, 0.0136460
2770.79, 0.0136850
2772.27, 0.0135280
2773.76, 0.0136070
2775.24, 0.0138410
2776.73, 0.0138800
2778.22, 0.0138020
2779.71, 0.0136850
2781.2, 0.0136070
2782.69, 0.0135680
2784.18, 0.0136850
2785.68, 0.0137240
2787.18, 0.0136460
2788.68, 0.0138020
2790.18, 0.0140760
2791.68, 0.0140760
2793.19, 0.0139190
2794.69, 0.0139190
2796.2, 0.0139980
2797.71, 0.0141150
2799.22, 0.0142320
2800.73, 0.0142320
2802.24, 0.0141540
2803.76, 0.0141540
2805.28, 0.0141930
2806.8, 0.0142320
2808.32, 0.0142320
2809.84, 0.0142710
2811.36, 0.0143890
2812.89, 0.0143890
2814.42, 0.0143500
2815.94, 0.0144670
2817.48, 0.0145450
2819.01, 0.0145450
2820.54, 0.0146230
2822.08, 0.0145840
2823.61, 0.0146230
2825.15, 0.0147800
2826.69, 0.0147410
2828.23, 0.0147010
2829.78, 0.0148190
2831.32, 0.0148580
2832.87, 0.0147010
2834.42, 0.0147410
2835.97, 0.0149750
2837.52, 0.0149750
2839.08, 0.0149360
2840.63, 0.0148190
2842.19, 0.0147800
2843.75, 0.0148580
2845.31, 0.0150140
2846.87, 0.0151310
2848.44, 0.0150920
2850.0, 0.0151310
2851.57, 0.0151310
2853.14, 0.0151310
2854.71, 0.0150920
2856.28, 0.0151310
2857.86, 0.0152490
2859.43, 0.0152490
2861.01, 0.0152880
2862.59, 0.0153270
2864.17, 0.0153270
2865.76, 0.0154050
2867.34, 0.0154440
2868.93, 0.0154830
2870.52, 0.0154830
2872.11, 0.0154830
2873.7, 0.0154830
2875.29, 0.0154440
2876.89, 0.0155220
2878.49, 0.0155620
2880.08, 0.0155220
2881.69, 0.0155620
2883.29, 0.0156400
2884.89, 0.0156400
2886.5, 0.0157570
2888.11, 0.0158350
2889.72, 0.0158350
2891.33, 0.0157180
2892.94, 0.0157180
2894.56, 0.0157180
2896.17, 0.0156790
2897.79, 0.0157570
2899.42, 0.0158350
2901.04, 0.0157960
2902.66, 0.0158350
2904.29, 0.0158350
2905.92, 0.0158740
2907.55, 0.0159130
2909.18, 0.0158740
2910.81, 0.0158740
2912.45, 0.0159530
2914.08, 0.0160310
2915.72, 0.0161090
2917.36, 0.0161480
2919.01, 0.0161090
2920.65, 0.0159530
2922.3, 0.0160310
2923.94, 0.0161870
2925.59, 0.0162650
2927.25, 0.0162260
2928.9, 0.0162260
2930.56, 0.0162650
2932.21, 0.0163830
2933.87, 0.0163440
2935.53, 0.0162260
2937.2, 0.0163040
2938.86, 0.0163830
2940.53, 0.0163440
2942.2, 0.0163830
2943.87, 0.0165000
2945.54, 0.0165000
2947.22, 0.0165390
2948.89, 0.0165780
2950.57, 0.0166170
2952.25, 0.0165780
2953.93, 0.0165780
2955.62, 0.0167350
2957.3, 0.0167740
2958.99, 0.0167350
2960.68, 0.0167350
2962.37, 0.0168130
2964.07, 0.0168130
2965.76, 0.0168130
2967.46, 0.0168910
2969.16, 0.0168910
2970.86, 0.0169690
2972.56, 0.0170080
2974.27, 0.0168520
2975.98, 0.0168910
2977.69, 0.0170470
2979.4, 0.0170860
2981.11, 0.0169690
2982.83, 0.0170470
2984.54, 0.0171260
2986.26, 0.0171260
2987.98, 0.0172040
2989.71, 0.0173600
2991.43, 0.0173990
2993.16, 0.0172430
2994.89, 0.0172040
2996.62, 0.0172040
2998.35, 0.0172040
3000.09, 0.0173210
3001.83, 0.0173600
3003.57, 0.0173600
3005.31, 0.0173600
3007.05, 0.0173990
3008.79, 0.0173600
3010.54, 0.0173990
3012.29, 0.0174770
3014.04, 0.0175560
3015.8, 0.0174770
3017.55, 0.0174380
3019.31, 0.0174770
3021.07, 0.0173990
3022.83, 0.0174770
3024.59, 0.0175170
3026.36, 0.0174770
3028.13, 0.0174770
3029.9, 0.0175170
3031.67, 0.0175170
3033.44, 0.0175560
3035.22, 0.0175950
3037.0, 0.0176340
3038.78, 0.0175560
3040.56, 0.0175560
3042.34, 0.0176730
3044.13, 0.0175950
3045.92, 0.0175950
3047.71, 0.0176340
3049.5, 0.0175950
3051.3, 0.0175170
3053.09, 0.0175950
3054.89, 0.0177120
3056.69, 0.0177120
3058.5, 0.0175560
3060.3, 0.0175950
3062.11, 0.0176730
3063.92, 0.0177120
3065.73, 0.0177120
3067.55, 0.0176730
3069.36, 0.0176730
3071.18, 0.0177120
3073.0, 0.0177510
3074.82, 0.0177900
3076.65, 0.0179080
3078.48, 0.0179470
3080.31, 0.0179080
3082.14, 0.0179470
3083.97, 0.0179860
3085.8, 0.0179860
3087.64, 0.0179080
3089.48, 0.0179080
3091.33, 0.0180640
3093.17, 0.0181420
3095.02, 0.0181810
3096.87, 0.0181420
3098.72, 0.0181030
3100.57, 0.0181030
3102.43, 0.0181420
3104.28, 0.0182590
3106.14, 0.0183380
3108.01, 0.0183770
3109.87, 0.0183380
3111.74, 0.0184940
3113.61, 0.0186900
3115.48, 0.0188070
3117.35, 0.0187290
3119.23, 0.0187680
3121.1, 0.0188070
3122.98, 0.0188070
3124.87, 0.0188850
3126.75, 0.0190020
3128.64, 0.0191590
3130.53, 0.0191980
3132.42, 0.0191980
3134.31, 0.0193150
3136.21, 0.0193540
3138.11, 0.0193150
3140.01, 0.0193540
3141.91, 0.0194320
3143.82, 0.0195110
3145.73, 0.0195500
3147.64, 0.0196280
3149.55, 0.0196670
3151.46, 0.0197060
3153.38, 0.0197840
3155.3, 0.0198230
3157.22, 0.0198230
3159.14, 0.0199410
3161.07, 0.0200970
3163.0, 0.0200970
3164.93, 0.0200970
3166.86, 0.0202140
3168.8, 0.0203710
3170.74, 0.0204490
3172.68, 0.0205270
3174.62, 0.0205660
3176.56, 0.0207230
3178.51, 0.0209180
3180.46, 0.0209180
3182.42, 0.0208790
3184.37, 0.0208400
3186.33, 0.0208790
3188.29, 0.0210360
3190.25, 0.0210750
3192.21, 0.0211530
3194.18, 0.0212700
3196.15, 0.0214270
3198.12, 0.0214660
3200.09, 0.0214660
3202.07, 0.0214660
3204.05, 0.0215050
3206.03, 0.0216220
3208.02, 0.0217390
3210.0, 0.0217390
3211.99, 0.0218570
3213.98, 0.0219350
3215.98, 0.0219350
3217.97, 0.0219350
3219.97, 0.0220130
3221.97, 0.0220910
3223.98, 0.0222480
3225.98, 0.0224040
3227.99, 0.0225210
3230.0, 0.0225600
3232.02, 0.0225600
3234.03, 0.0225990
3236.05, 0.0227950
3238.07, 0.0229120
3240.1, 0.0229900
3242.12, 0.0230300
3244.15, 0.0230690
3246.18, 0.0230690
3248.22, 0.0231860
3250.25, 0.0232640
3252.29, 0.0233810
3254.33, 0.0234210
3256.38, 0.0235770
3258.43, 0.0236550
3260.47, 0.0236550
3262.53, 0.0237330
3264.58, 0.0238510
3266.64, 0.0239290
3268.7, 0.0240460
3270.76, 0.0241240
3272.82, 0.0241630
3274.89, 0.0242420
3276.96, 0.0243980
3279.04, 0.0245540
3281.11, 0.0246720
3283.19, 0.0247110
3285.27, 0.0247110
3287.35, 0.0248280
3289.44, 0.0249450
3291.53, 0.0250240
3293.62, 0.0250630
3295.71, 0.0251020
3297.81, 0.0252190
3299.91, 0.0253360
3302.01, 0.0254540
3304.11, 0.0254930
3306.22, 0.0255710
3308.33, 0.0256880
3310.44, 0.0258060
3312.56, 0.0258840
3314.68, 0.0259620
3316.8, 0.0260790
3318.92, 0.0261580
3321.05, 0.0261970
3323.18, 0.0263140
3325.31, 0.0263920
3327.44, 0.0264310
3329.58, 0.0264310
3331.72, 0.0265090
3333.86, 0.0265090
3336.01, 0.0264700
3338.16, 0.0263140
3340.31, 0.0263140
3342.46, 0.0263530
3344.61, 0.0262360
3346.77, 0.0261970
3348.94, 0.0263530
3351.1, 0.0264700
3353.27, 0.0266270
3355.44, 0.0267830
3357.61, 0.0269790
3359.79, 0.0271350
3361.97, 0.0273310
3364.15, 0.0274480
3366.33, 0.0276040
3368.52, 0.0278780
3370.71, 0.0281130
3372.9, 0.0283080
3375.1, 0.0285040
3377.3, 0.0286600
3379.5, 0.0288550
3381.71, 0.0290120
3383.91, 0.0292460
3386.12, 0.0294810
3388.34, 0.0296770
3390.55, 0.0298330
3392.77, 0.0300670
3394.99, 0.0303410
3397.22, 0.0304580
3399.45, 0.0306930
3401.68, 0.0308890
3403.91, 0.0310840
3406.15, 0.0313580
3408.39, 0.0315920
3410.63, 0.0318270
3412.87, 0.0321010
3415.12, 0.0322960
3417.37, 0.0324530
3419.63, 0.0326480
3421.88, 0.0329220
3424.14, 0.0331560
3426.41, 0.0333910
3428.67, 0.0336650
3430.94, 0.0339380
3433.21, 0.0342120
3435.49, 0.0344860
3437.77, 0.0347200
3440.05, 0.0349550
3442.33, 0.0352290
3444.62, 0.0355410
3446.91, 0.0357370
3449.2, 0.0360500
3451.5, 0.0364020
3453.8, 0.0366360
3456.1, 0.0369100
3458.41, 0.0372230
3460.72, 0.0374570
3463.03, 0.0376530
3465.34, 0.0378480
3467.66, 0.0381220
3469.98, 0.0383170
3472.31, 0.0384740
3474.63, 0.0387080
3476.96, 0.0389820
3479.3, 0.0393340
3481.64, 0.0396080
3483.97, 0.0398810
3486.32, 0.0401550
3488.66, 0.0405460
3491.01, 0.0408980
3493.36, 0.0412500
3495.72, 0.0416800
3498.08, 0.0421100
3500.44, 0.0425400
3502.81, 0.0428140
3505.18, 0.0431270
3507.55, 0.0435960
3509.92, 0.0440260
3512.3, 0.0444170
3514.68, 0.0448860
3517.06, 0.0453940
3519.45, 0.0459030
3521.84, 0.0464500
3524.24, 0.0471540
3526.64, 0.0478580
3529.04, 0.0484830
3531.44, 0.0491870
3533.85, 0.0499690
3536.26, 0.0506340
3538.67, 0.0512590
3541.09, 0.0519630
3543.51, 0.0525500
3545.93, 0.0530970
3548.36, 0.0536440
3550.79, 0.0542310
3553.22, 0.0547000
3555.66, 0.0552080
3558.1, 0.0557170
3560.54, 0.0562640
3562.99, 0.0566940
3565.44, 0.0570460
3567.9, 0.0575150
3570.35, 0.0579450
3572.81, 0.0584150
3575.28, 0.0589230
3577.75, 0.0594700
3580.22, 0.0600960
3582.69, 0.0608000
3585.17, 0.0614640
3587.65, 0.0620510
3590.14, 0.0626760
3592.62, 0.0633020
3595.11, 0.0638890
3597.61, 0.0645140
3600.11, 0.0650620
3602.61, 0.0656090
3605.11, 0.0661170
3607.62, 0.0666650
3610.14, 0.0672510
3612.65, 0.0677980
3615.17, 0.0684240
3617.69, 0.0690110
3620.22, 0.0694800
3622.75, 0.0699880
3625.28, 0.0705750
3627.82, 0.0711220
3630.36, 0.0716300
3632.9, 0.0720600
3635.45, 0.0726080
3638.0, 0.0731550
3640.56, 0.0737020
3643.12, 0.0742500
3645.68, 0.0748360
3648.24, 0.0752660
3650.81, 0.0757750
3653.39, 0.0763220
3655.96, 0.0767910
3658.54, 0.0772610
3661.13, 0.0778080
3663.71, 0.0783550
3666.3, 0.0789420
3668.9, 0.0793720
3671.5, 0.0798020
3674.1, 0.0803100
3676.7, 0.0808580
3679.31, 0.0814050
3681.93, 0.0819130
3684.54, 0.0823040
3687.17, 0.0828130
3689.79, 0.0832820
3692.42, 0.0837120
3695.05, 0.0841420
3697.69, 0.0846110
3700.32, 0.0851590
3702.97, 0.0857060
3705.61, 0.0861360
3708.27, 0.0865270
3710.92, 0.0869570
3713.58, 0.0873870
3716.24, 0.0877780
3718.91, 0.0882480
3721.58, 0.0887560
3724.25, 0.0891860
3726.93, 0.0895770
3729.61, 0.0900070
3732.29, 0.0903980
3734.98, 0.0907110
3737.67, 0.0910240
3740.37, 0.0914540
3743.07, 0.0917660
3745.78, 0.0920400
3748.49, 0.0924310
3751.2, 0.0927830
3753.91, 0.0930960
3756.63, 0.0934480
3759.36, 0.0938000
3762.09, 0.0941520
3764.82, 0.0944640
3767.55, 0.0946990
3770.29, 0.0949340
3773.04, 0.0952070
3775.78, 0.0953250
3778.54, 0.0954030
3781.29, 0.0955200
3784.05, 0.0955980
3786.82, 0.0955590
3789.59, 0.0953640
3792.36, 0.0950900
3795.13, 0.0948160
3797.92, 0.0943080
3800.7, 0.0938390
3803.49, 0.0934090
3806.28, 0.0930960
3809.08, 0.0927830
3811.88, 0.0925480
3814.68, 0.0923530
3817.49, 0.0922360
3820.31, 0.0920400
3823.12, 0.0918840
3825.94, 0.0917660
3828.77, 0.0916880
3831.6, 0.0915320
3834.43, 0.0914930
3837.27, 0.0914930
3840.11, 0.0914540
3842.96, 0.0914150
3845.81, 0.0915320
3848.67, 0.0916880
3851.53, 0.0917660
3854.39, 0.0918450
3857.26, 0.0919620
3860.13, 0.0920010
3863.01, 0.0920790
3865.89, 0.0921970
3868.77, 0.0922750
3871.66, 0.0922360
3874.55, 0.0923140
3877.45, 0.0923920
3880.35, 0.0924310
3883.26, 0.0924700
3886.17, 0.0925880
3889.09, 0.0926270
3892.01, 0.0926660
3894.93, 0.0925880
3897.86, 0.0925880
3900.79, 0.0925880
3903.73, 0.0925480
3906.67, 0.0924700
3909.62, 0.0923920
3912.57, 0.0923140
3915.52, 0.0922750
3918.48, 0.0921970
3921.45, 0.0920400
3924.42, 0.0919230
3927.39, 0.0917660
3930.37, 0.0915710
3933.35, 0.0914150
3936.34, 0.0912580
3939.33, 0.0910240
3942.32, 0.0906330
3945.32, 0.0901630
3948.33, 0.0897330
3951.34, 0.0892640
3954.35, 0.0888340
3957.37, 0.0884430
3960.39, 0.0880910
3963.42, 0.0877390
3966.45, 0.0873870
3969.49, 0.0870750
3972.53, 0.0868010
3975.58, 0.0864880
3978.63, 0.0862140
3981.68, 0.0859410
3984.75, 0.0857060
3987.81, 0.0856670
3990.88, 0.0856280
3993.95, 0.0855110
3997.03, 0.0853930
4000.12, 0.0854320
4003.21, 0.0854320
4006.3, 0.0853930
4009.4, 0.0854320
4012.5, 0.0855110
4015.61, 0.0855890
4018.72, 0.0855890
4021.84, 0.0854320
4024.96, 0.0852760
4028.09, 0.0851590
4031.22, 0.0850410
4034.36, 0.0849630
4037.5, 0.0850020
4040.65, 0.0850800
4043.8, 0.0852370
4046.96, 0.0852760
4050.12, 0.0852760
4053.29, 0.0853150
4056.46, 0.0852370
4059.64, 0.0850410
4062.82, 0.0848070
4066.0, 0.0845330
4069.19, 0.0842200
4072.39, 0.0839070
4075.59, 0.0836340
4078.8, 0.0833210
4082.01, 0.0829690
4085.23, 0.0826950
4088.45, 0.0822650
4091.68, 0.0817570
4094.91, 0.0813660
4098.15, 0.0809360
4101.39, 0.0805060
4104.63, 0.0801150
4107.89, 0.0797240
4111.14, 0.0792940
4114.41, 0.0788250
4117.67, 0.0783550
4120.95, 0.0779250
4124.23, 0.0774560
4127.51, 0.0770260
4130.8, 0.0765960
4134.09, 0.0761660
4137.39, 0.0756180
4140.7, 0.0751100
4144.01, 0.0746020
4147.32, 0.0741330
4150.64, 0.0735460
4153.97, 0.0729990
4157.3, 0.0724900
4160.64, 0.0719430
4163.98, 0.0714350
4167.33, 0.0708870
4170.68, 0.0703010
4174.04, 0.0697140
4177.4, 0.0692060
4180.77, 0.0686200
4184.14, 0.0679940
4187.52, 0.0674470
4190.91, 0.0668990
4194.3, 0.0662740
4197.69, 0.0657260
4201.1, 0.0651790
4204.5, 0.0645920
4207.92, 0.0640450
4211.34, 0.0634580
4214.76, 0.0629500
4218.19, 0.0624810
4221.62, 0.0619340
4225.06, 0.0612690
4228.51, 0.0606430
4231.96, 0.0600570
4235.42, 0.0595090
4238.88, 0.0589620
4242.35, 0.0584540
4245.83, 0.0579060
4249.31, 0.0573590
4252.79, 0.0567720
4256.28, 0.0561860
4259.78, 0.0557560
4263.29, 0.0552870
4266.79, 0.0547780
4270.31, 0.0542700
4273.83, 0.0537230
4277.35, 0.0532140
4280.89, 0.0527060
4284.42, 0.0521980
4287.97, 0.0516900
4291.52, 0.0511810
4295.07, 0.0507510
4298.63, 0.0503210
4302.2, 0.0498130
4305.78, 0.0493040
4309.35, 0.0488350
4312.94, 0.0484050
4316.53, 0.0479360
4320.13, 0.0475840
4323.73, 0.0471540
4327.34, 0.0467630
4330.96, 0.0464110
4334.58, 0.0460200
4338.21, 0.0456680
4341.84, 0.0452770
4345.48, 0.0449640
4349.12, 0.0446520
4352.77, 0.0443390
4356.43, 0.0440260
4360.1, 0.0437910
4363.76, 0.0435180
4367.44, 0.0432440
4371.12, 0.0429700
4374.81, 0.0426580
4378.51, 0.0423840
4382.21, 0.0421490
4385.92, 0.0419540
4389.63, 0.0416800
4393.35, 0.0414450
4397.08, 0.0411720
4400.81, 0.0408980
4404.55, 0.0406630
4408.29, 0.0404680
4412.04, 0.0402330
4415.8, 0.0400380
4419.57, 0.0398420
4423.34, 0.0396860
4427.12, 0.0394900
4430.9, 0.0392950
4434.69, 0.0390990
4438.49, 0.0389430
4442.29, 0.0387480
4446.1, 0.0385130
4449.92, 0.0383960
4453.74, 0.0382780
4457.57, 0.0381220
4461.41, 0.0378870
4465.25, 0.0377310
4469.1, 0.0376920
4472.95, 0.0376140
4476.82, 0.0374960
4480.69, 0.0373400
4484.56, 0.0372620
4488.44, 0.0371450
4492.33, 0.0370270
4496.23, 0.0369100
4500.13, 0.0368710
4504.04, 0.0368320
4507.96, 0.0367540
4511.88, 0.0367140
4515.81, 0.0366750
4519.75, 0.0365970
4523.69, 0.0365190
4527.65, 0.0364800
4531.6, 0.0364800
4535.57, 0.0365190
4539.54, 0.0364800
4543.52, 0.0364800
4547.5, 0.0364020
4551.5, 0.0364020
4555.5, 0.0364410
4559.5, 0.0363630
4563.52, 0.0362840
4567.54, 0.0362840
4571.56, 0.0363230
4575.6, 0.0363630
4579.64, 0.0364800
4583.69, 0.0364800
4587.75, 0.0363630
4591.81, 0.0363630
4595.88, 0.0364020
4599.96, 0.0364800
4604.04, 0.0364800
4608.14, 0.0364800
4612.24, 0.0365190
4616.34, 0.0365190
4620.46, 0.0365580
4624.58, 0.0365580
4628.71, 0.0364800
4632.84, 0.0364020
4636.99, 0.0363630
4641.14, 0.0362840
4645.3, 0.0362060
4649.47, 0.0361280
4653.64, 0.0361280
4657.82, 0.0361280
4662.01, 0.0361670
4666.21, 0.0362060
4670.41, 0.0363630
4674.62, 0.0364800
4678.84, 0.0365970
4683.07, 0.0366750
4687.3, 0.0368710
4691.54, 0.0371450
4695.79, 0.0373790
4700.05, 0.0376920
4704.31, 0.0381220
4708.59, 0.0384740
4712.87, 0.0388650
4717.15, 0.0392560
4721.45, 0.0395690
4725.76, 0.0398810
4730.07, 0.0401940
4734.39, 0.0404680
4738.72, 0.0407030
4743.05, 0.0409370
4747.39, 0.0411330
4751.75, 0.0413670
4756.1, 0.0415630
4760.47, 0.0417580
4764.85, 0.0419150
4769.23, 0.0420320
4773.62, 0.0422270
4778.02, 0.0424230
4782.43, 0.0425790
4786.85, 0.0427750
4791.27, 0.0430090
4795.7, 0.0431270
4800.14, 0.0432050
4804.59, 0.0432830
4809.05, 0.0434400
4813.51, 0.0435960
4817.99, 0.0437910
4822.47, 0.0439480
4826.96, 0.0440260
4831.46, 0.0441430
4835.96, 0.0442610
4840.48, 0.0443390
4845.0, 0.0444170
4849.54, 0.0444950
4854.08, 0.0445730
4858.63, 0.0446910
4863.18, 0.0448470
4867.75, 0.0449250
4872.33, 0.0450030
4876.91, 0.0449640
4881.5, 0.0451210
4886.1, 0.0451990
4890.71, 0.0452380
4895.33, 0.0452770
4899.96, 0.0453160
4904.59, 0.0453550
4909.24, 0.0453940
4913.89, 0.0454340
4918.55, 0.0453940
4923.22, 0.0454730
4927.9, 0.0455510
4932.59, 0.0455510
4937.29, 0.0455900
4942.0, 0.0455900
4946.71, 0.0455900
4951.44, 0.0456290
4956.17, 0.0455900
4960.91, 0.0455900
4965.67, 0.0456290
4970.43, 0.0455510
4975.2, 0.0455120
4979.98, 0.0455120
4984.76, 0.0455120
4989.56, 0.0454340
4994.37, 0.0453550
4999.18, 0.0452380
5004.01, 0.0451600
5008.84, 0.0450820
5013.69, 0.0449250
5018.54, 0.0447300
5023.4, 0.0446520
5028.28, 0.0445340
5033.16, 0.0444170
5038.05, 0.0443390
5042.95, 0.0441040
5047.86, 0.0439090
5052.78, 0.0437520
5057.71, 0.0435180
5062.65, 0.0433220
5067.6, 0.0431270
5072.56, 0.0428530
5077.53, 0.0425400
5082.5, 0.0422270
5087.49, 0.0418360
5092.49, 0.0413280
5097.5, 0.0408200
5102.51, 0.0405460
5107.54, 0.0405460
5112.58, 0.0405850
5117.62, 0.0405070
5122.68, 0.0403120
5127.75, 0.0400770
5132.82, 0.0397640
5137.91, 0.0395300
5143.01, 0.0392950
5148.12, 0.0389820
5153.23, 0.0387480
5158.36, 0.0385520
5163.5, 0.0382780
5168.65, 0.0380050
5173.81, 0.0378090
5178.98, 0.0376140
5184.15, 0.0373790
5189.34, 0.0371450
5194.54, 0.0367930
5199.75, 0.0364800
5204.98, 0.0362450
5210.21, 0.0359320
5215.45, 0.0357760
5220.7, 0.0356590
5225.96, 0.0354240
5231.23, 0.0351900
5236.52, 0.0349550
5241.81, 0.0347590
5247.12, 0.0345640
5252.44, 0.0343290
5257.76, 0.0340950
5263.1, 0.0338990
5268.45, 0.0337430
5273.81, 0.0335470
5279.18, 0.0334690
5284.56, 0.0332740
5289.95, 0.0330390
5295.36, 0.0328830
5300.77, 0.0326870
5306.2, 0.0324530
5311.63, 0.0322570
5317.08, 0.0321400
5322.54, 0.0320220
5328.01, 0.0317880
5333.49, 0.0316310
5338.98, 0.0313970
5344.49, 0.0311620
5350.0, 0.0308100
5355.53, 0.0306930
5361.07, 0.0305760
5366.62, 0.0304580
5372.18, 0.0302240
5377.75, 0.0299890
5383.34, 0.0297160
5388.93, 0.0294810
5394.54, 0.0291680
5400.16, 0.0288550
5405.79, 0.0286210
5411.44, 0.0282690
5417.09, 0.0278000
5422.76, 0.0274090
5428.43, 0.0272910
5434.12, 0.0270960
5439.83, 0.0267440
5445.54, 0.0263920
5451.26, 0.0260400
5457.0, 0.0256880
5462.75, 0.0252580
5468.52, 0.0249450
5474.29, 0.0245940
5480.08, 0.0242420
5485.88, 0.0239290
5491.69, 0.0235380
5497.51, 0.0232250
5503.35, 0.0228730
5509.2, 0.0225600
5515.06, 0.0221690
5520.93, 0.0217390
5526.82, 0.0213870
5532.71, 0.0210750
5538.63, 0.0206840
5544.55, 0.0202540
5550.49, 0.0199020
5556.44, 0.0195890
5562.4, 0.0193930
5568.37, 0.0192370
5574.36, 0.0190020
5580.36, 0.0188850
5586.37, 0.0190410
5592.4, 0.0190410
5598.44, 0.0189240
5604.49, 0.0187680
5610.56, 0.0187290
5616.63, 0.0186500
5622.73, 0.0185720
5628.83, 0.0184160
5634.95, 0.0182590
5641.08, 0.0179080
5647.23, 0.0178290
5653.39, 0.0177510
5659.56, 0.0176340
5665.74, 0.0175170
5671.94, 0.0172430
5678.15, 0.0170080
5684.38, 0.0168910
5690.62, 0.0166560
5696.87, 0.0165390
5703.14, 0.0162650
5709.42, 0.0158350
5715.72, 0.0156790
5722.03, 0.0155620
5728.35, 0.0153270
5734.69, 0.0150920
5741.03, 0.0148190
5747.4, 0.0145060
5753.78, 0.0142710
5760.17, 0.0138800
5766.58, 0.0134110
5773.0, 0.0132940
5779.44, 0.0131770
5785.88, 0.0129420
5792.35, 0.0126290
5798.83, 0.0122770
5805.32, 0.0119250
5811.83, 0.0115730
5818.35, 0.0111430
5824.89, 0.0108310
5831.45, 0.0106740
5838.01, 0.0104400
5844.59, 0.0102050
5851.19, 0.00993100
5857.8, 0.00957900
5864.43, 0.00922700
5871.07, 0.00899300
5877.73, 0.00860200
5884.4, 0.00832800
5891.09, 0.00821100
5897.79, 0.00801500
5904.5, 0.00793700
5911.23, 0.00782000
5917.98, 0.00762400
5924.75, 0.00746800
5931.53, 0.00727300
5938.32, 0.00707700
5945.13, 0.00711600
5951.96, 0.00707700
5958.8, 0.00699900
5965.65, 0.00680300
5972.53, 0.00672500
5979.42, 0.00676400
5986.32, 0.00672500
5993.24, 0.00664700
6000.18, 0.00664700
6007.13, 0.00672500
6014.1, 0.00668600
6021.08, 0.00664700
6028.09, 0.00676400
6035.1, 0.00692100
6042.14, 0.00684200
6049.19, 0.00688200
6056.25, 0.00723300
6063.34, 0.00746800
6070.44, 0.00766300
6077.55, 0.00797600
6084.69, 0.00832800
6091.84, 0.00864100
6099.0, 0.00895400
6106.19, 0.00914900
6113.39, 0.00926700
6120.61, 0.00961800
6127.84, 0.0100090
6135.09, 0.0102440
6142.36, 0.0103610
6149.65, 0.0105180
6156.95, 0.0106350
6164.27, 0.0107520
6171.61, 0.0108310
6178.97, 0.0107910
6186.34, 0.0107910
6193.73, 0.0110260
6201.14, 0.0110650
6208.57, 0.0111820
6216.01, 0.0113000
6223.47, 0.0114170
6230.95, 0.0114950
6238.45, 0.0115340
6245.97, 0.0116520
6253.5, 0.0118080
6261.06, 0.0119640
6268.63, 0.0121600
6276.21, 0.0123160
6283.82, 0.0125120
6291.45, 0.0127460
6299.1, 0.0129420
6306.76, 0.0130980
6314.44, 0.0133330
6322.14, 0.0136460
6329.86, 0.0138800
6337.6, 0.0140370
6345.35, 0.0142710
6353.13, 0.0148190
6360.92, 0.0151710
6368.74, 0.0153270
6376.57, 0.0157570
6384.43, 0.0161480
6392.3, 0.0164220
6400.19, 0.0166950
6408.1, 0.0166170
6416.03, 0.0168130
6423.98, 0.0175170
6431.95, 0.0181420
6439.94, 0.0188070
6447.95, 0.0193930
6455.98, 0.0199410
6464.03, 0.0203320
6472.1, 0.0204880
6480.19, 0.0204490
6488.31, 0.0202930
6496.44, 0.0203710
6504.59, 0.0209180
6512.76, 0.0211920
6520.95, 0.0211530
6529.16, 0.0213480
6537.4, 0.0214270
6545.65, 0.0213090
6553.92, 0.0212310
6562.22, 0.0211530
6570.54, 0.0208400
6578.88, 0.0208010
6587.23, 0.0209570
6595.61, 0.0209570
6604.02, 0.0210360
6612.44, 0.0209180
6620.89, 0.0207230
6629.35, 0.0202930
6637.84, 0.0199410
6646.35, 0.0202540
6654.88, 0.0204490
6663.44, 0.0202540
6672.01, 0.0199410
6680.61, 0.0197060
6689.23, 0.0197450
6697.88, 0.0197840
6706.54, 0.0194720
6715.23, 0.0191980
6723.94, 0.0191200
6732.67, 0.0190810
6741.42, 0.0189240
6750.2, 0.0187680
6759.0, 0.0186900
6767.82, 0.0184550
6776.67, 0.0182200
6785.54, 0.0179860
6794.44, 0.0178680
6803.35, 0.0179860
6812.29, 0.0179860
6821.26, 0.0178680
6830.24, 0.0177900
6839.25, 0.0177510
6848.29, 0.0175560
6857.35, 0.0171650
6866.43, 0.0170470
6875.54, 0.0172820
6884.67, 0.0173600
6893.82, 0.0172820
6903.0, 0.0170860
6912.2, 0.0170080
6921.43, 0.0169690
6930.69, 0.0169690
6939.96, 0.0168910
6949.27, 0.0167350
6958.59, 0.0165000
6967.95, 0.0165390
6977.33, 0.0166560
6986.73, 0.0166560
6996.16, 0.0166560
7005.61, 0.0166950
7015.09, 0.0165780
7024.6, 0.0164610
7034.13, 0.0163830
7043.69, 0.0161480
7053.27, 0.0161480
7062.88, 0.0162260
7072.52, 0.0161090
7082.18, 0.0159130
7091.87, 0.0156790
7101.58, 0.0152880
7111.32, 0.0147800
7121.09, 0.0142320
7130.88, 0.0138410
7140.71, 0.0135280
7150.56, 0.0133330
7160.43, 0.0132160
7170.33, 0.0129420
7180.27, 0.0127070
7190.23, 0.0124730
7200.21, 0.0121990
7210.23, 0.0119640
7220.27, 0.0118860
7230.34, 0.0117690
7240.44, 0.0115730
7250.56, 0.0113780
7260.72, 0.0112220
7270.9, 0.0110260
7281.12, 0.0109090
7291.36, 0.0108310
7301.63, 0.0107520
7311.93, 0.0106740
7322.25, 0.0105570
7332.61, 0.0104000
7343.0, 0.0102830
7353.41, 0.0102050
7363.86, 0.0100880
7374.33, 0.00993100
7384.83, 0.00973600
7395.37, 0.00954000
7405.93, 0.00934500
7416.53, 0.00918800
7427.15, 0.00903200
7437.81, 0.00883600
7448.5, 0.00871900
7459.22, 0.00856300
7469.96, 0.00840600
7480.74, 0.00821100
7491.55, 0.00805400
7502.39, 0.00797600
7513.27, 0.00782000
7524.17, 0.00770300
7535.11, 0.00754600
7546.08, 0.00735100
7557.08, 0.00719400
7568.11, 0.00703800
7579.17, 0.00688200
7590.27, 0.00676400
7601.4, 0.00668600
7612.56, 0.00656900
7623.76, 0.00645100
7634.98, 0.00633400
7646.24, 0.00613900
7657.54, 0.00602100
7668.87, 0.00594300
7680.23, 0.00586500
7691.62, 0.00574800
7703.05, 0.00559100
7714.51, 0.00551300
7726.01, 0.00547400
7737.54, 0.00535700
7749.11, 0.00520000
7760.71, 0.00508300
7772.35, 0.00492700
7784.02, 0.00480900
7795.72, 0.00477000
7807.46, 0.00473100
7819.23, 0.00461400
7831.04, 0.00449600
7842.89, 0.00441800
7854.77, 0.00426200
7866.69, 0.00418400
7878.65, 0.00414500
7890.64, 0.00410500
7902.67, 0.00410500
7914.74, 0.00402700
7926.84, 0.00402700
7938.98, 0.00410500
7951.16, 0.00410500
7963.37, 0.00410500
7975.62, 0.00418400
7987.91, 0.00414500
8000.24, 0.00422300
8012.6, 0.00437900
8025.01, 0.00453600
8037.45, 0.00465300
8049.93, 0.00488700
8062.45, 0.00512200
8075.01, 0.00547400
8087.61, 0.00590400
8100.24, 0.00645100
8112.91, 0.00711600
8125.63, 0.00782000
8138.39, 0.00864100
8151.18, 0.00961800
8164.02, 0.0107130
8176.9, 0.0118080
8189.81, 0.0130200
8202.77, 0.0144280
8215.77, 0.0159130
8228.82, 0.0174380
8241.9, 0.0189240
8255.02, 0.0204100
8268.19, 0.0218960
8281.39, 0.0231860
8294.65, 0.0243590
8307.94, 0.0253360
8321.28, 0.0261970
8334.66, 0.0269790
8348.08, 0.0275650
8361.54, 0.0280340
8375.05, 0.0285040
8388.6, 0.0288550
8402.2, 0.0292070
8415.84, 0.0294810
8429.52, 0.0297550
8443.25, 0.0300280
8457.02, 0.0303410
8470.84, 0.0306930
8484.7, 0.0311620
8498.61, 0.0314750
8512.57, 0.0319830
8526.57, 0.0325700
8540.62, 0.0330780
8554.71, 0.0336650
8568.85, 0.0342900
8583.04, 0.0347590
8597.27, 0.0351900
8611.55, 0.0355410
8625.88, 0.0360500
8640.26, 0.0365190
8654.68, 0.0369490
8669.16, 0.0373010
8683.68, 0.0375750
8698.25, 0.0378090
8712.87, 0.0380440
8727.53, 0.0382000
8742.25, 0.0383170
8757.02, 0.0384350
8771.83, 0.0384740
8786.7, 0.0385520
8801.62, 0.0388260
8816.59, 0.0390210
8831.61, 0.0390600
8846.68, 0.0392170
8861.8, 0.0393730
8876.97, 0.0396080
8892.2, 0.0399210
8907.48, 0.0401550
8922.81, 0.0405070
8938.2, 0.0410540
8953.63, 0.0417190
8969.13, 0.0423450
8984.67, 0.0431270
9000.27, 0.0441040
9015.92, 0.0452380
9031.63, 0.0465280
9047.39, 0.0479750
9063.21, 0.0495780
9079.08, 0.0512200
9095.01, 0.0530970
9111.0, 0.0552080
9127.04, 0.0575540
9143.13, 0.0599000
9159.28, 0.0624030
9175.49, 0.0651790
9191.76, 0.0680330
9208.09, 0.0709660
9224.47, 0.0739370
9240.92, 0.0769090
9257.42, 0.0798020
9273.98, 0.0827340
9290.6, 0.0854320
9307.28, 0.0876610
9324.02, 0.0895380
9340.82, 0.0911020
9357.68, 0.0922360
9374.6, 0.0929000
9391.58, 0.0931740
9408.62, 0.0931350
9425.73, 0.0928220
9442.9, 0.0922750
9460.13, 0.0915320
9477.42, 0.0907890
9494.78, 0.0898900
9512.2, 0.0890300
9529.69, 0.0880910
9547.24, 0.0870350
9564.86, 0.0859800
9582.54, 0.0849240
9600.28, 0.0839070
9618.1, 0.0829690
9635.97, 0.0820700
9653.92, 0.0811310
9671.93, 0.0799980
9690.01, 0.0787460
9708.16, 0.0775340
9726.37, 0.0765180
9744.65, 0.0755010
9763.0, 0.0744450
9781.43, 0.0732720
9799.92, 0.0722170
9818.48, 0.0712000
9837.1, 0.0701050
9855.8, 0.0690500
9874.58, 0.0679940
9893.42, 0.0669380
9912.34, 0.0660000
9931.33, 0.0650220
9950.39, 0.0640840
9969.52, 0.0630280
9988.74, 0.0620900
10008.0, 0.0613470
10027.4, 0.0605260
10046.8, 0.0596270
10066.3, 0.0587670
10085.9, 0.0579060
10105.6, 0.0570460
10125.3, 0.0561860
10145.1, 0.0554040
10165.0, 0.0545830
10185.0, 0.0537620
10205.0, 0.0529800
10225.2, 0.0521980
10245.4, 0.0514160
10265.7, 0.0505950
10286.0, 0.0497350
10306.5, 0.0489530
10327.0, 0.0481710
10347.6, 0.0473890
10368.3, 0.0466460
10389.1, 0.0459030
10409.9, 0.0451210
10430.9, 0.0444170
10451.9, 0.0438310
10473.0, 0.0432050
10494.2, 0.0426180
10515.5, 0.0419930
10536.9, 0.0412110
10558.4, 0.0405850
10579.9, 0.0401160
10601.5, 0.0395300
10623.3, 0.0388650
10645.1, 0.0384350
10667.0, 0.0380050
10689.0, 0.0374960
10711.1, 0.0369490
10733.2, 0.0364410
10755.5, 0.0360110
10777.9, 0.0356980
10800.3, 0.0353460
10822.9, 0.0349550
10845.5, 0.0346030
10868.2, 0.0341340
10891.1, 0.0336650
10914.0, 0.0333520
10937.0, 0.0331170
10960.2, 0.0327260
10983.4, 0.0322960
11006.7, 0.0320220
11030.1, 0.0316710
11053.6, 0.0312010
11077.3, 0.0308100
11101.0, 0.0305760
11124.8, 0.0303020
11148.7, 0.0299890
11172.7, 0.0297940
11196.9, 0.0297550
11221.1, 0.0297550
11245.4, 0.0301850
11269.9, 0.0306930
11294.4, 0.0306150
11319.1, 0.0301460
11343.9, 0.0297160
11368.8, 0.0290510
11393.7, 0.0282690
11418.8, 0.0275260
11444.0, 0.0268220
11469.4, 0.0262360
11494.8, 0.0259230
11520.3, 0.0256880
11546.0, 0.0253360
11571.8, 0.0249450
11597.7, 0.0246720
11623.7, 0.0243980
11649.8, 0.0240460
11676.0, 0.0237330
11702.4, 0.0233030
11728.9, 0.0228730
11755.5, 0.0225600
11782.2, 0.0221690
11809.0, 0.0219350
11836.0, 0.0217000
11863.0, 0.0214270
11890.3, 0.0212310
11917.6, 0.0209570
11945.0, 0.0206050
11972.6, 0.0204100
12000.4, 0.0202140
12028.2, 0.0198230
12056.2, 0.0194320
12084.3, 0.0190410
12112.5, 0.0187290
12140.9, 0.0184550
12169.4, 0.0179860
12198.0, 0.0175560
12226.8, 0.0171650
12255.7, 0.0167350
12284.7, 0.0163040
12313.9, 0.0161090
12343.2, 0.0159530
12372.7, 0.0156790
12402.3, 0.0154440
12432.0, 0.0152490
12461.9, 0.0150920
12491.9, 0.0149750
12522.1, 0.0148580
12552.4, 0.0147800
12582.9, 0.0146620
12613.5, 0.0145060
12644.3, 0.0145840
12675.2, 0.0147800
12706.3, 0.0146620
12737.5, 0.0143500
12768.9, 0.0142320
12800.4, 0.0143500
12832.1, 0.0143890
12863.9, 0.0142710
12895.9, 0.0142320
12928.1, 0.0141930
12960.4, 0.0141930
12992.9, 0.0143500
13025.5, 0.0145060
13058.3, 0.0143500
13091.3, 0.0141930
13124.4, 0.0141540
13157.8, 0.0140760
13191.2, 0.0139980
13224.9, 0.0139980
13258.7, 0.0138020
13292.7, 0.0137630
13326.9, 0.0137240
13361.2, 0.0136850
13395.7, 0.0137630
13430.4, 0.0138800
13465.3, 0.0137630
13500.4, 0.0137240
13535.7, 0.0137240
13571.1, 0.0138410
13606.7, 0.0138410
13642.5, 0.0138410
13678.5, 0.0138020
13714.7, 0.0136070
13751.1, 0.0135680
13787.6, 0.0132940
13824.4, 0.0130200
13861.4, 0.0127860
13898.5, 0.0126290
13935.9, 0.0124340
13973.5, 0.0124340
14011.2, 0.0128640
14049.2, 0.0130980
14087.4, 0.0130590
14125.8, 0.0130200
14164.3, 0.0130980
14203.2, 0.0132550
14242.2, 0.0132550
14281.4, 0.0132160
14320.9, 0.0132550
14360.5, 0.0132550
14400.4, 0.0132550
14440.5, 0.0134110
14480.9, 0.0135680
14521.4, 0.0134890
14562.2, 0.0131370
14603.3, 0.0130200
14644.5, 0.0132550
14686.0, 0.0130980
14727.7, 0.0127070
14769.7, 0.0126290
14811.9, 0.0125900
14854.3, 0.0123950
14897.0, 0.0123950
14939.9, 0.0121600
14983.1, 0.0119640
15026.5, 0.0118470
15070.2, 0.0116520
15114.2, 0.0116520
15158.3, 0.0117300
15202.8, 0.0117300
15247.5, 0.0114170
15292.5, 0.0111040
15337.7, 0.0108310
15383.2, 0.0106350
15429.0, 0.0107130
15475.1, 0.0105570
15521.4, 0.0104400
15568.0, 0.0103220
15614.9, 0.0101660
15662.1, 0.0100490
15709.6, 0.0101660
15757.3, 0.0101270
15805.4, 0.0100090
15853.7, 0.0101270
15902.3, 0.0103220
15951.2, 0.0104000
16000.5, 0.0108310
16050.0, 0.0116910
16099.8, 0.0125120
16150.0, 0.0130590
16200.5, 0.0138020
16251.3, 0.0148970
16302.4, 0.0161090
16353.8, 0.0172430
16405.5, 0.0183770
16457.6, 0.0194320
16510.0, 0.0205270
16562.8, 0.0218570
16615.9, 0.0231860
16669.3, 0.0246330
16723.1, 0.0261970
16777.2, 0.0276820
16831.7, 0.0289340
16886.5, 0.0302240
16941.7, 0.0315920
16997.2, 0.0327260
17053.1, 0.0337820
17109.4, 0.0345250
17166.1, 0.0351500
17223.1, 0.0359720
17280.5, 0.0365580
17338.3, 0.0366360
17396.5, 0.0366360
17455.1, 0.0368320
17514.0, 0.0369100
17573.4, 0.0367140
17633.2, 0.0365190
17693.4, 0.0367140
17754.0, 0.0367540
17815.0, 0.0362840
17876.4, 0.0358930
17938.3, 0.0355810
18000.5, 0.0351900
18063.3, 0.0349160
18126.4, 0.0349160
18190.0, 0.0345250
18254.1, 0.0340170
18318.6, 0.0337040
18383.5, 0.0330780
18449.0, 0.0325700
18514.9, 0.0321010
18581.2, 0.0319830
18648.0, 0.0317880
18715.4, 0.0313190
18783.2, 0.0308100
18851.5, 0.0303410
18920.3, 0.0301850
18989.6, 0.0301850
19059.4, 0.0301460
19129.7, 0.0297550
19200.6, 0.0295590
19272.0, 0.0299500
19343.9, 0.0300670
19416.3, 0.0304980
19489.3, 0.0309670
19562.8, 0.0317880
19637.0, 0.0329610
19711.6, 0.0337040
19786.8, 0.0345250
19862.6, 0.0359320
19939.0, 0.0371050
20016.0, 0.0379660
20093.6, 0.0386690
20171.8, 0.0401940
20250.6, 0.0414850
20330.0, 0.0431270
20410.0, 0.0447300
20490.7, 0.0457070
20572.0, 0.0471150
20654.0, 0.0489530
20736.6, 0.0510250
20819.9, 0.0531360
20903.8, 0.0551690
20988.5, 0.0569680
21073.8, 0.0587270
21159.8, 0.0604480
21246.5, 0.0629500
21334.0, 0.0649050
21422.1, 0.0659220
21511.0, 0.0674860
21600.7, 0.0689710
21691.0, 0.0695580
21782.1, 0.0698710
21874.0, 0.0713570
21966.7, 0.0720600
22060.2, 0.0716300
22154.5, 0.0712780
22249.6, 0.0715130
22345.5, 0.0715130
22442.2, 0.0712560
22539.8, 0.0708480
22638.2, 0.0705650
22737.5, 0.0700510
22837.7, 0.0688370
22938.7, 0.0670740
23040.7, 0.0654180
23143.5, 0.0630260
23247.3, 0.0603060
23352.1, 0.0583570
23457.7, 0.0567970
23564.4, 0.0552210
23672.0, 0.0534840
23780.5, 0.0528020
23890.1, 0.0518810
24000.7, 0.0504540
24112.3, 0.0497280
24225.0, 0.0496300
24338.7, 0.0493730
24453.5, 0.0490280
24569.4, 0.0485050
24686.4, 0.0494000
24804.5, 0.0510740
24923.8, 0.0512960
25044.2, 0.0517650
25165.8, 0.0531120
25288.6, 0.0539270
25412.5, 0.0542020
25537.7, 0.0539800
25664.1, 0.0537500
25791.8, 0.0537410
25920.8, 0.0539540
26051.1, 0.0542280
26182.6, 0.0546450
26315.5, 0.0553620
26449.8, 0.0554330
26585.4, 0.0551050
26722.5, 0.0548570
26860.9, 0.0549100
27000.8, 0.0552740
27142.1, 0.0556370
27285.0, 0.0555840
27429.4, 0.0553620
27575.3, 0.0554420
27722.7, 0.0554950
27871.8, 0.0557700
28022.4, 0.0559560
28174.7, 0.0556900
28328.7, 0.0554770
28484.4, 0.0562750
28641.7, 0.0575420
28800.9, 0.0584450
28961.8, 0.0586850
29124.5, 0.0581440
29289.0, 0.0580470
29455.4, 0.0586670
29623.8, 0.0587820
29794.0, 0.0590920
29966.3, 0.0593840
30140.5, 0.0590390
30316.7, 0.0585430
30495.1, 0.0587640
30675.5, 0.0591980
30858.1, 0.0598450
31042.8, 0.0598270
31229.8, 0.0592070
31419.1, 0.0587730
31610.7, 0.0588000
31804.6, 0.0586050
32000.9, 0.0590740
32199.7, 0.0590920
32400.9, 0.0583740
32604.8, 0.0575680
32811.1, 0.0574440
33020.1, 0.0563370
33231.8, 0.0557520
33446.2, 0.0561420
33663.4, 0.0558580
33883.4, 0.0553000
34106.3, 0.0546540
34332.1, 0.0537060
34561.0, 0.0527490
34792.9, 0.0524830
35028.0, 0.0526600
35266.3, 0.0524030
35507.8, 0.0519600
35752.7, 0.0508350
36001.0, 0.0499490
36252.8, 0.0497630
36508.1, 0.0500820
36767.0, 0.0494440
37029.7, 0.0483630
37296.1, 0.0475130
37566.3, 0.0469020
37840.5, 0.0463520
38118.8, 0.0458830
38401.2, 0.0459000
38687.8, 0.0455370
38978.6, 0.0450150
39273.9, 0.0446690
39573.7, 0.0454130
39878.1, 0.0448200
40187.3, 0.0442440
40501.2, 0.0439250
40820.0, 0.0433490
41144.0, 0.0435700
41473.2, 0.0435170
41807.6, 0.0431450
42147.5, 0.0425340
42493.0, 0.0429150
42844.2, 0.0447400
43201.2, 0.0456350
43564.3, 0.0452270
43933.5, 0.0450590
44309.0, 0.0447750
44691.0, 0.0448550
45079.6, 0.0438100
45475.0, 0.0437650
45877.5, 0.0439870
46287.1, 0.0432340
46704.2, 0.0416130
47128.7, 0.0425600
47561.1, 0.0433840
48001.5, 0.0462550
48450.1, 0.0497720
48907.2, 0.0452450
49373.0, 0.0412760
49847.7, 0.0407000
50331.5, 0.0401060
50825.0, 0.0388310
51328.2, 0.0396630
51841.5, 0.0389370
52365.1, 0.0385120
52899.4, 0.0389100
53444.8, 0.0392820
54001.5, 0.0391140
54570.1, 0.0373870
55150.6, 0.0361460
55743.6, 0.0371470
56349.5, 0.0376260
56968.7, 0.0385030
57601.7, 0.0390340
58248.9, 0.0382550
58910.9, 0.0368200
59588.1, 0.0366690
60281.0, 0.0365540
60990.2, 0.0375990
61716.3, 0.0382280
62459.8, 0.0373510
63221.6, 0.0358100
64002.1, 0.0369700
64802.1, 0.0381570
65622.1, 0.0413730
66463.4, 0.0457140
67326.6, 0.0379270
68212.4, 0.0358270
69121.9, 0.0355000
70056.0, 0.0356680
71015.7, 0.0368200
72002.0, 0.0370590
73016.3, 0.0382110
74059.4, 0.0381220
75132.7, 0.0372180
76237.6, 0.0375280
77375.5, 0.0372450
78547.9, 0.0381480
79756.3, 0.0394600
81002.5, 0.0381480
82288.5, 0.0376880
83615.7, 0.0404610
84986.5, 0.0431270
86402.9, 0.0428170
87867.4, 0.0426840
89382.4, 0.0440310
90950.5, 0.0439340
92574.6, 0.0446420
94257.2, 0.0454750
96002.7, 0.0454310
97814.1, 0.0448370
99695.1, 0.0431980
101650.0, 0.0425870
103683.0, 0.0418160
105799.0, 0.0400530
108003.0, 0.0407620
110301.0, 0.0428790
112699.0, 0.0425160
115204.0, 0.0433050
117822.0, 0.0410720
120562.0, 0.0377320
123433.0, 0.0388310
126443.0, 0.0394600
129604.0, 0.0409750
132926.0, 0.0373950
136424.0, 0.0366250
140111.0, 0.0461310
144003.0, 0.0480620
148118.0, 0.0456790
152474.0, 0.0435970
157095.0, 0.0435790
162004.0, 0.0432600
167231.0, 0.0446870
172805.0, 0.0387420
178764.0, 0.0310520
185148.0, 0.0315390
192005.0, 0.0422860
199390.0, 0.0188530
216006.0, 0.0421880
