Database of Origin,USGS Spectral Database
Sample Description,See USGS database for additional info
Date Added,2016-11-20 03:59:53.889999

Data ID,USGS_liz03          
Sample ID,lizard_nmnhr4687.12967
Mineral Name,Lizardite
Material Class,Phosphate

Wavelength
1344.79, 0.540643
1345.14, 0.541229
1345.48, 0.542106
1345.83, 0.541960
1346.18, 0.542106
1346.53, 0.543350
1346.88, 0.543642
1347.23, 0.544008
1347.58, 0.544886
1347.93, 0.545398
1348.28, 0.545544
1348.64, 0.546056
1348.99, 0.546349
1349.34, 0.546642
1349.69, 0.547373
1350.04, 0.547446
1350.39, 0.547300
1350.74, 0.547446
1351.1, 0.546934
1351.45, 0.547154
1351.8, 0.547373
1352.15, 0.547227
1352.51, 0.546934
1352.86, 0.546642
1353.21, 0.546788
1353.56, 0.546422
1353.92, 0.545764
1354.27, 0.545691
1354.63, 0.545252
1354.98, 0.544593
1355.33, 0.543935
1355.69, 0.543350
1356.04, 0.542765
1356.4, 0.542253
1356.75, 0.541302
1357.11, 0.540790
1357.46, 0.540570
1357.82, 0.540643
1358.18, 0.540936
1358.53, 0.541668
1358.89, 0.541668
1359.24, 0.542179
1359.6, 0.542472
1359.96, 0.542692
1360.31, 0.542692
1360.67, 0.543057
1361.03, 0.542911
1361.39, 0.543277
1361.74, 0.543935
1362.1, 0.545179
1362.46, 0.544959
1362.82, 0.544813
1363.18, 0.545544
1363.53, 0.546422
1363.89, 0.547739
1364.25, 0.549494
1364.61, 0.550153
1364.97, 0.550738
1365.33, 0.551543
1365.69, 0.551762
1366.05, 0.552420
1366.41, 0.553956
1366.77, 0.554615
1367.13, 0.554834
1367.49, 0.554981
1367.85, 0.555493
1368.21, 0.556517
1368.57, 0.556809
1368.93, 0.556809
1369.3, 0.557248
1369.66, 0.557541
1370.02, 0.557029
1370.38, 0.557102
1370.74, 0.557980
1371.11, 0.557687
1371.47, 0.557614
1371.83, 0.558053
1372.19, 0.557980
1372.56, 0.557907
1372.92, 0.557321
1373.29, 0.557468
1373.65, 0.557980
1374.01, 0.557468
1374.38, 0.557248
1374.74, 0.557102
1375.11, 0.556882
1375.47, 0.556882
1375.84, 0.556370
1376.2, 0.555712
1376.57, 0.555858
1376.93, 0.556005
1377.3, 0.554981
1377.67, 0.553737
1378.03, 0.552640
1378.4, 0.550665
1378.76, 0.546349
1379.13, 0.538888
1379.5, 0.525940
1379.87, 0.503996
1380.23, 0.475029
1380.6, 0.447671
1380.97, 0.431286
1381.34, 0.426897
1381.7, 0.429677
1382.07, 0.437942
1382.44, 0.452426
1382.81, 0.470274
1383.18, 0.487025
1383.55, 0.499095
1383.92, 0.504947
1384.29, 0.505751
1384.66, 0.503557
1385.03, 0.499022
1385.4, 0.492511
1385.77, 0.486001
1386.14, 0.480003
1386.51, 0.476126
1386.88, 0.474883
1387.25, 0.475395
1387.62, 0.477882
1387.99, 0.480296
1388.36, 0.482856
1388.74, 0.484538
1389.11, 0.486001
1389.48, 0.487025
1389.85, 0.487172
1390.23, 0.486513
1390.6, 0.485928
1390.97, 0.485343
1391.35, 0.484684
1391.72, 0.483514
1392.09, 0.482783
1392.47, 0.480808
1392.84, 0.477662
1393.21, 0.474444
1393.59, 0.471591
1393.96, 0.468445
1394.34, 0.465593
1394.71, 0.462301
1395.09, 0.458863
1395.46, 0.456668
1395.84, 0.455571
1396.22, 0.454035
1396.59, 0.453230
1396.97, 0.453450
1397.35, 0.454474
1397.72, 0.456888
1398.1, 0.460180
1398.48, 0.463032
1398.85, 0.465958
1399.23, 0.469616
1399.61, 0.473858
1399.99, 0.477809
1400.37, 0.481612
1400.74, 0.484904
1401.12, 0.487684
1401.5, 0.489732
1401.88, 0.491341
1402.26, 0.493024
1402.64, 0.495364
1403.02, 0.497998
1403.4, 0.501143
1403.78, 0.504435
1404.16, 0.508092
1404.54, 0.512335
1404.92, 0.516797
1405.3, 0.519869
1405.68, 0.522868
1406.06, 0.526233
1406.44, 0.529159
1406.83, 0.531719
1407.21, 0.533987
1407.59, 0.535742
1407.97, 0.537864
1408.35, 0.539912
1408.74, 0.541448
1409.12, 0.543130
1409.5, 0.544520
1409.89, 0.545618
1410.27, 0.546788
1410.65, 0.547885
1411.04, 0.548470
1411.42, 0.548836
1411.81, 0.549641
1412.19, 0.549933
1412.58, 0.550592
1412.96, 0.551104
1413.35, 0.551762
1413.73, 0.552274
1414.12, 0.552567
1414.5, 0.552201
1414.89, 0.552420
1415.28, 0.552859
1415.66, 0.552420
1416.05, 0.551762
1416.44, 0.551543
1416.82, 0.551104
1417.21, 0.551323
1417.6, 0.551177
1417.98, 0.550811
1418.37, 0.550299
1418.76, 0.550006
1419.15, 0.549348
1419.54, 0.548324
1419.93, 0.547519
1420.32, 0.547519
1420.71, 0.547154
1421.09, 0.546568
1421.48, 0.546568
1421.88, 0.545910
1422.27, 0.545471
1422.66, 0.545618
1423.05, 0.544886
1423.44, 0.544520
1423.83, 0.544593
1424.22, 0.544081
1424.61, 0.543789
1425.0, 0.543935
1425.39, 0.543716
1425.78, 0.543642
1426.18, 0.543862
1426.57, 0.543789
1426.96, 0.543569
1427.36, 0.544081
1427.75, 0.544520
1428.14, 0.544740
1428.54, 0.544081
1428.93, 0.544301
1429.32, 0.544667
1429.72, 0.544667
1430.11, 0.544593
1430.51, 0.544813
1430.9, 0.545252
1431.3, 0.545471
1431.69, 0.545471
1432.09, 0.546056
1432.48, 0.545983
1432.88, 0.545983
1433.28, 0.545983
1433.67, 0.546349
1434.07, 0.546568
1434.46, 0.546495
1434.86, 0.546568
1435.26, 0.547080
1435.66, 0.547007
1436.05, 0.546568
1436.45, 0.546934
1436.85, 0.547300
1437.25, 0.547519
1437.65, 0.547739
1438.05, 0.547885
1438.44, 0.547666
1438.84, 0.547958
1439.24, 0.547958
1439.64, 0.547739
1440.04, 0.547958
1440.44, 0.547666
1440.84, 0.547519
1441.24, 0.547593
1441.65, 0.547666
1442.05, 0.547739
1442.45, 0.547812
1442.85, 0.547739
1443.25, 0.547812
1443.65, 0.547519
1444.05, 0.547227
1444.46, 0.547080
1444.86, 0.547446
1445.26, 0.548031
1445.67, 0.548031
1446.07, 0.547666
1446.47, 0.547446
1446.88, 0.547446
1447.28, 0.547446
1447.68, 0.547300
1448.09, 0.547373
1448.49, 0.547373
1448.9, 0.547373
1449.3, 0.547446
1449.71, 0.547885
1450.11, 0.547593
1450.52, 0.547739
1450.93, 0.547446
1451.33, 0.547300
1451.74, 0.547227
1452.14, 0.546788
1452.55, 0.546495
1452.96, 0.546349
1453.36, 0.546568
1453.77, 0.546422
1454.18, 0.546203
1454.59, 0.545837
1455.0, 0.545764
1455.41, 0.546276
1455.81, 0.545910
1456.22, 0.545691
1456.63, 0.545325
1457.04, 0.545398
1457.45, 0.545618
1457.86, 0.545691
1458.27, 0.545691
1458.68, 0.545544
1459.09, 0.545544
1459.5, 0.545471
1459.91, 0.545837
1460.32, 0.545983
1460.74, 0.545471
1461.15, 0.544959
1461.56, 0.544886
1461.97, 0.544667
1462.39, 0.545032
1462.8, 0.545618
1463.21, 0.545544
1463.62, 0.544520
1464.04, 0.544374
1464.45, 0.544886
1464.86, 0.545398
1465.28, 0.545032
1465.69, 0.544447
1466.11, 0.544228
1466.52, 0.543862
1466.94, 0.544008
1467.35, 0.544228
1467.77, 0.543789
1468.18, 0.543716
1468.6, 0.543862
1469.02, 0.543789
1469.43, 0.543642
1469.85, 0.543496
1470.27, 0.543423
1470.68, 0.543569
1471.1, 0.544008
1471.52, 0.543716
1471.94, 0.543862
1472.35, 0.543642
1472.77, 0.543423
1473.19, 0.543350
1473.61, 0.543569
1474.03, 0.543423
1474.45, 0.542765
1474.87, 0.542472
1475.29, 0.542545
1475.71, 0.542618
1476.13, 0.542838
1476.55, 0.542838
1476.97, 0.542253
1477.39, 0.542253
1477.81, 0.542545
1478.23, 0.542692
1478.65, 0.542399
1479.07, 0.542106
1479.5, 0.541960
1479.92, 0.542106
1480.34, 0.542253
1480.76, 0.542033
1481.19, 0.541814
1481.61, 0.541668
1482.03, 0.541521
1482.46, 0.541448
1482.88, 0.541229
1483.31, 0.541155
1483.73, 0.541155
1484.16, 0.541082
1484.58, 0.540863
1485.01, 0.540643
1485.43, 0.540570
1485.86, 0.540863
1486.28, 0.540497
1486.71, 0.540131
1487.14, 0.540570
1487.56, 0.540717
1487.99, 0.540497
1488.42, 0.540058
1488.84, 0.539985
1489.27, 0.539766
1489.7, 0.539839
1490.13, 0.540278
1490.56, 0.540278
1490.98, 0.540204
1491.41, 0.540643
1491.84, 0.540717
1492.27, 0.540278
1492.7, 0.539692
1493.13, 0.539473
1493.56, 0.539327
1493.99, 0.539619
1494.42, 0.539400
1494.85, 0.539180
1495.29, 0.539107
1495.72, 0.539400
1496.15, 0.539180
1496.58, 0.539107
1497.01, 0.538741
1497.44, 0.538741
1497.88, 0.538961
1498.31, 0.538741
1498.74, 0.538229
1499.18, 0.538083
1499.61, 0.538303
1500.04, 0.538449
1500.48, 0.538449
1500.91, 0.538376
1501.35, 0.538303
1501.78, 0.538083
1502.22, 0.537498
1502.65, 0.537205
1503.09, 0.537352
1503.53, 0.537425
1503.96, 0.537059
1504.4, 0.537132
1504.83, 0.536767
1505.27, 0.536547
1505.71, 0.536474
1506.15, 0.536547
1506.58, 0.535962
1507.02, 0.535596
1507.46, 0.535742
1507.9, 0.536108
1508.34, 0.535816
1508.78, 0.535596
1509.21, 0.535742
1509.66, 0.535816
1510.09, 0.535889
1510.53, 0.535889
1510.97, 0.535596
1511.42, 0.535523
1511.86, 0.535157
1512.3, 0.535011
1512.74, 0.535011
1513.18, 0.535084
1513.62, 0.535230
1514.06, 0.534572
1514.51, 0.534353
1514.95, 0.534572
1515.39, 0.534426
1515.83, 0.534645
1516.28, 0.534645
1516.72, 0.534206
1517.16, 0.533914
1517.61, 0.533841
1518.05, 0.533841
1518.5, 0.533694
1518.94, 0.533328
1519.39, 0.533182
1519.83, 0.533328
1520.28, 0.533402
1520.73, 0.533109
1521.17, 0.532963
1521.62, 0.532816
1522.07, 0.532743
1522.51, 0.532743
1522.96, 0.533036
1523.41, 0.532816
1523.85, 0.533182
1524.3, 0.533036
1524.75, 0.532158
1525.2, 0.531939
1525.65, 0.532524
1526.1, 0.532231
1526.55, 0.531866
1527.0, 0.531646
1527.45, 0.531427
1527.9, 0.531427
1528.35, 0.531792
1528.8, 0.532012
1529.25, 0.531939
1529.7, 0.531353
1530.15, 0.531061
1530.6, 0.531134
1531.05, 0.530915
1531.51, 0.530988
1531.96, 0.530988
1532.41, 0.531061
1532.87, 0.531134
1533.32, 0.530988
1533.77, 0.530476
1534.23, 0.530403
1534.68, 0.530622
1535.14, 0.530183
1535.59, 0.529890
1536.05, 0.530256
1536.5, 0.530183
1536.96, 0.530037
1537.41, 0.530037
1537.87, 0.529744
1538.32, 0.529598
1538.78, 0.529817
1539.24, 0.529817
1539.7, 0.529525
1540.15, 0.529671
1540.61, 0.530256
1541.07, 0.530403
1541.53, 0.529744
1541.98, 0.529598
1542.44, 0.529671
1542.9, 0.529817
1543.36, 0.529671
1543.82, 0.529598
1544.28, 0.529671
1544.74, 0.529744
1545.2, 0.529525
1545.66, 0.529086
1546.12, 0.528940
1546.59, 0.529232
1547.05, 0.529305
1547.51, 0.529232
1547.97, 0.529452
1548.43, 0.529598
1548.9, 0.529452
1549.36, 0.529232
1549.82, 0.529159
1550.29, 0.529159
1550.75, 0.528940
1551.21, 0.528647
1551.68, 0.528793
1552.14, 0.529086
1552.61, 0.529086
1553.07, 0.528866
1553.54, 0.528574
1554.0, 0.528866
1554.47, 0.528866
1554.93, 0.528793
1555.4, 0.529013
1555.87, 0.528940
1556.34, 0.528281
1556.8, 0.528281
1557.27, 0.528501
1557.74, 0.528135
1558.21, 0.527769
1558.68, 0.528062
1559.14, 0.528135
1559.61, 0.528135
1560.08, 0.528135
1560.55, 0.528208
1561.02, 0.527842
1561.49, 0.527989
1561.96, 0.527989
1562.43, 0.527915
1562.9, 0.527769
1563.38, 0.527842
1563.85, 0.527550
1564.32, 0.527330
1564.79, 0.527769
1565.26, 0.527623
1565.74, 0.527330
1566.21, 0.527257
1566.68, 0.527184
1567.16, 0.527403
1567.63, 0.527623
1568.1, 0.527403
1568.58, 0.527038
1569.05, 0.526818
1569.53, 0.526672
1570.0, 0.526745
1570.48, 0.526818
1570.96, 0.526891
1571.43, 0.526672
1571.91, 0.526891
1572.39, 0.527184
1572.86, 0.526526
1573.34, 0.526379
1573.82, 0.526526
1574.3, 0.526014
1574.77, 0.525940
1575.25, 0.526233
1575.73, 0.526160
1576.21, 0.526087
1576.69, 0.526160
1577.17, 0.525940
1577.65, 0.525794
1578.13, 0.525794
1578.61, 0.526014
1579.09, 0.526087
1579.57, 0.526014
1580.05, 0.525648
1580.54, 0.525575
1581.02, 0.525428
1581.5, 0.525209
1581.98, 0.525136
1582.47, 0.525209
1582.95, 0.525428
1583.43, 0.525502
1583.92, 0.525648
1584.4, 0.525575
1584.88, 0.525502
1585.37, 0.525355
1585.85, 0.525063
1586.34, 0.524843
1586.82, 0.524990
1587.31, 0.524990
1587.8, 0.524770
1588.28, 0.524697
1588.77, 0.524404
1589.26, 0.524039
1589.74, 0.523965
1590.23, 0.524185
1590.72, 0.524258
1591.21, 0.523965
1591.7, 0.524039
1592.19, 0.524404
1592.67, 0.524404
1593.16, 0.524185
1593.65, 0.523965
1594.14, 0.524039
1594.63, 0.523892
1595.12, 0.523892
1595.61, 0.523746
1596.11, 0.523746
1596.6, 0.523673
1597.09, 0.523380
1597.58, 0.523234
1598.08, 0.523600
1598.57, 0.523819
1599.06, 0.523307
1599.55, 0.522649
1600.05, 0.522795
1600.54, 0.523161
1601.04, 0.523088
1601.53, 0.522722
1602.03, 0.522868
1602.52, 0.523161
1603.02, 0.523307
1603.51, 0.522941
1604.01, 0.522722
1604.5, 0.522649
1605.0, 0.522795
1605.5, 0.522722
1606.0, 0.522722
1606.49, 0.522795
1606.99, 0.522941
1607.49, 0.522576
1607.99, 0.522429
1608.49, 0.522576
1608.99, 0.522429
1609.49, 0.522283
1609.99, 0.522502
1610.49, 0.522429
1610.99, 0.522356
1611.49, 0.521990
1611.99, 0.522064
1612.49, 0.522429
1612.99, 0.522356
1613.49, 0.522064
1614.0, 0.522064
1614.5, 0.522356
1615.0, 0.522210
1615.51, 0.521990
1616.01, 0.521990
1616.51, 0.521990
1617.02, 0.521844
1617.52, 0.521844
1618.03, 0.521771
1618.53, 0.521625
1619.04, 0.521625
1619.54, 0.521698
1620.05, 0.521917
1620.55, 0.521844
1621.06, 0.521405
1621.57, 0.521625
1622.08, 0.521990
1622.58, 0.521771
1623.09, 0.521405
1623.6, 0.521113
1624.11, 0.521186
1624.62, 0.520966
1625.13, 0.521039
1625.64, 0.521186
1626.15, 0.521259
1626.66, 0.520966
1627.17, 0.521113
1627.68, 0.521039
1628.19, 0.521039
1628.7, 0.521039
1629.21, 0.520893
1629.72, 0.520601
1630.24, 0.520747
1630.75, 0.520747
1631.26, 0.520527
1631.78, 0.520454
1632.29, 0.520381
1632.8, 0.520381
1633.32, 0.520454
1633.83, 0.520162
1634.35, 0.520162
1634.86, 0.520089
1635.38, 0.520015
1635.9, 0.520162
1636.41, 0.520015
1636.93, 0.519576
1637.45, 0.519503
1637.96, 0.519503
1638.48, 0.519284
1639.0, 0.519211
1639.52, 0.519284
1640.04, 0.519284
1640.56, 0.519138
1641.08, 0.518991
1641.59, 0.519064
1642.11, 0.519138
1642.63, 0.518991
1643.16, 0.518845
1643.68, 0.518918
1644.2, 0.518918
1644.72, 0.518845
1645.24, 0.518772
1645.76, 0.518552
1646.29, 0.518260
1646.81, 0.518040
1647.33, 0.518040
1647.86, 0.518113
1648.38, 0.517821
1648.9, 0.517748
1649.43, 0.517601
1649.95, 0.517601
1650.48, 0.517821
1651.0, 0.517821
1651.53, 0.517748
1652.06, 0.517601
1652.58, 0.517309
1653.11, 0.517382
1653.64, 0.517309
1654.17, 0.517309
1654.69, 0.517236
1655.22, 0.516724
1655.75, 0.516504
1656.28, 0.516650
1656.81, 0.516577
1657.34, 0.516504
1657.87, 0.516577
1658.4, 0.516577
1658.93, 0.516431
1659.46, 0.516431
1659.99, 0.516504
1660.52, 0.516431
1661.05, 0.516212
1661.59, 0.516139
1662.12, 0.515992
1662.65, 0.515919
1663.19, 0.515773
1663.72, 0.515626
1664.26, 0.515700
1664.79, 0.515846
1665.32, 0.515480
1665.86, 0.515114
1666.39, 0.515114
1666.93, 0.514968
1667.47, 0.514749
1668.0, 0.514822
1668.54, 0.514895
1669.08, 0.514968
1669.61, 0.514822
1670.15, 0.514895
1670.69, 0.514749
1671.23, 0.514529
1671.77, 0.514602
1672.31, 0.514310
1672.85, 0.514310
1673.39, 0.514237
1673.93, 0.514237
1674.47, 0.514602
1675.01, 0.514529
1675.55, 0.514237
1676.09, 0.514090
1676.64, 0.514017
1677.18, 0.514017
1677.72, 0.513798
1678.26, 0.513578
1678.81, 0.513651
1679.35, 0.513651
1679.89, 0.513432
1680.44, 0.513432
1680.98, 0.513725
1681.53, 0.513505
1682.07, 0.513286
1682.62, 0.513286
1683.17, 0.513359
1683.71, 0.513286
1684.26, 0.513139
1684.81, 0.513066
1685.36, 0.512993
1685.9, 0.512700
1686.45, 0.512627
1687.0, 0.512920
1687.55, 0.512774
1688.1, 0.512554
1688.65, 0.512408
1689.2, 0.512335
1689.75, 0.512188
1690.3, 0.512115
1690.85, 0.512262
1691.41, 0.512335
1691.96, 0.512115
1692.51, 0.512188
1693.06, 0.512262
1693.61, 0.511969
1694.17, 0.511969
1694.72, 0.511823
1695.28, 0.511676
1695.83, 0.511530
1696.39, 0.511457
1696.94, 0.511311
1697.5, 0.511311
1698.05, 0.511018
1698.61, 0.511238
1699.17, 0.511457
1699.72, 0.511384
1700.28, 0.511238
1700.84, 0.511164
1701.4, 0.511091
1701.95, 0.510872
1702.51, 0.510433
1703.07, 0.510579
1703.63, 0.510579
1704.19, 0.510360
1704.75, 0.510360
1705.31, 0.510213
1705.88, 0.509921
1706.44, 0.509994
1707.0, 0.509921
1707.56, 0.509848
1708.12, 0.509482
1708.69, 0.509409
1709.25, 0.509409
1709.81, 0.509409
1710.38, 0.509336
1710.94, 0.509043
1711.51, 0.508897
1712.07, 0.508897
1712.64, 0.508970
1713.2, 0.508897
1713.77, 0.508531
1714.34, 0.508458
1714.9, 0.508385
1715.47, 0.508312
1716.04, 0.508312
1716.61, 0.508092
1717.18, 0.507946
1717.74, 0.508092
1718.31, 0.508019
1718.88, 0.507726
1719.45, 0.507214
1720.02, 0.507214
1720.59, 0.506922
1721.17, 0.506702
1721.74, 0.506702
1722.31, 0.506410
1722.88, 0.506483
1723.45, 0.506702
1724.03, 0.506556
1724.6, 0.506117
1725.18, 0.506190
1725.75, 0.506263
1726.33, 0.506190
1726.9, 0.505971
1727.48, 0.505678
1728.05, 0.505532
1728.63, 0.505459
1729.2, 0.505166
1729.78, 0.504947
1730.36, 0.505093
1730.94, 0.504947
1731.51, 0.505020
1732.09, 0.504947
1732.67, 0.504654
1733.25, 0.504435
1733.83, 0.504288
1734.41, 0.504069
1734.99, 0.504069
1735.57, 0.503996
1736.15, 0.503996
1736.73, 0.503923
1737.32, 0.503923
1737.9, 0.503630
1738.48, 0.503411
1739.07, 0.503338
1739.65, 0.503264
1740.23, 0.503118
1740.82, 0.503118
1741.4, 0.502972
1741.99, 0.502972
1742.57, 0.502972
1743.16, 0.502899
1743.74, 0.502825
1744.33, 0.502899
1744.92, 0.502825
1745.51, 0.502533
1746.09, 0.502313
1746.68, 0.502167
1747.27, 0.502240
1747.86, 0.502167
1748.45, 0.502094
1749.04, 0.502167
1749.63, 0.501948
1750.22, 0.501801
1750.81, 0.501801
1751.4, 0.501655
1751.99, 0.501509
1752.59, 0.501509
1753.18, 0.501509
1753.77, 0.501509
1754.37, 0.501070
1754.96, 0.500924
1755.56, 0.501143
1756.15, 0.501289
1756.74, 0.501216
1757.34, 0.500997
1757.94, 0.500704
1758.53, 0.500412
1759.13, 0.500338
1759.73, 0.500192
1760.32, 0.500265
1760.92, 0.500338
1761.52, 0.500119
1762.12, 0.500119
1762.72, 0.499899
1763.32, 0.499753
1763.92, 0.499973
1764.52, 0.499753
1765.12, 0.499607
1765.72, 0.499753
1766.32, 0.499680
1766.92, 0.499607
1767.53, 0.499168
1768.13, 0.499168
1768.73, 0.499168
1769.34, 0.499314
1769.94, 0.499314
1770.55, 0.499022
1771.15, 0.498656
1771.76, 0.498729
1772.36, 0.499022
1772.97, 0.499022
1773.57, 0.498510
1774.18, 0.498290
1774.79, 0.498510
1775.4, 0.498656
1776.0, 0.498656
1776.61, 0.498510
1777.22, 0.498363
1777.83, 0.498144
1778.44, 0.498071
1779.05, 0.498071
1779.66, 0.497851
1780.27, 0.497705
1780.88, 0.497632
1781.5, 0.497559
1782.11, 0.497339
1782.72, 0.497266
1783.33, 0.497339
1783.95, 0.497266
1784.56, 0.497120
1785.18, 0.496973
1785.79, 0.496681
1786.41, 0.496608
1787.02, 0.496608
1787.64, 0.496461
1788.26, 0.496388
1788.87, 0.496242
1789.49, 0.495876
1790.11, 0.495803
1790.73, 0.495511
1791.35, 0.495437
1791.96, 0.495511
1792.58, 0.495584
1793.21, 0.495437
1793.83, 0.495145
1794.45, 0.494852
1795.07, 0.494779
1795.69, 0.494486
1796.31, 0.494194
1796.93, 0.494121
1797.56, 0.494267
1798.18, 0.494048
1798.8, 0.493828
1799.43, 0.493682
1800.05, 0.493535
1800.68, 0.493462
1801.3, 0.493535
1801.93, 0.493316
1802.56, 0.493170
1803.18, 0.492877
1803.81, 0.492585
1804.44, 0.492511
1805.07, 0.492438
1805.7, 0.492219
1806.33, 0.491926
1806.95, 0.491487
1807.58, 0.491268
1808.22, 0.491122
1808.85, 0.490829
1809.48, 0.490244
1810.11, 0.490171
1810.74, 0.490463
1811.38, 0.490463
1812.01, 0.489951
1812.64, 0.489732
1813.28, 0.489439
1813.91, 0.489147
1814.55, 0.489147
1815.18, 0.489585
1815.82, 0.489585
1816.45, 0.489366
1817.09, 0.489073
1817.73, 0.488927
1818.36, 0.489000
1819.0, 0.488854
1819.64, 0.489147
1820.28, 0.489585
1820.92, 0.489220
1821.56, 0.488927
1822.2, 0.488634
1822.84, 0.488415
1823.48, 0.488415
1824.12, 0.488342
1824.76, 0.488196
1825.41, 0.488561
1826.05, 0.489220
1826.69, 0.488561
1827.34, 0.487830
1827.98, 0.487976
1828.63, 0.488123
1829.27, 0.488049
1829.92, 0.488049
1830.56, 0.488269
1831.21, 0.488049
1831.86, 0.487830
1832.5, 0.487537
1833.15, 0.487098
1833.8, 0.487245
1834.45, 0.487318
1835.1, 0.487318
1835.75, 0.487610
1836.4, 0.487391
1837.05, 0.487098
1837.7, 0.487318
1838.35, 0.486586
1839.01, 0.486586
1839.66, 0.487245
1840.31, 0.486659
1840.96, 0.486513
1841.62, 0.486952
1842.27, 0.486367
1842.93, 0.485635
1843.58, 0.485489
1844.24, 0.485343
1844.9, 0.484977
1845.55, 0.484758
1846.21, 0.485343
1846.87, 0.486147
1847.53, 0.485928
1848.18, 0.485416
1848.84, 0.484538
1849.5, 0.483953
1850.16, 0.483660
1850.82, 0.483660
1851.48, 0.483368
1852.14, 0.483222
1852.81, 0.483587
1853.47, 0.484099
1854.13, 0.483660
1854.8, 0.482783
1855.46, 0.482636
1856.12, 0.483002
1856.79, 0.482929
1857.45, 0.482344
1858.12, 0.482124
1858.79, 0.482417
1859.45, 0.483295
1860.12, 0.483002
1860.79, 0.482197
1861.46, 0.481759
1862.12, 0.481466
1862.79, 0.481393
1863.46, 0.481612
1864.13, 0.481759
1864.8, 0.481539
1865.48, 0.481173
1866.15, 0.481100
1866.82, 0.481246
1867.49, 0.481832
1868.16, 0.481539
1868.84, 0.480954
1869.51, 0.480661
1870.19, 0.481320
1870.86, 0.481759
1871.54, 0.480588
1872.21, 0.480149
1872.89, 0.480954
1873.56, 0.480296
1874.24, 0.479198
1874.92, 0.478759
1875.6, 0.478174
1876.28, 0.478174
1876.96, 0.478101
1877.64, 0.477370
1878.32, 0.476638
1879.0, 0.476126
1879.68, 0.475760
1880.36, 0.475541
1881.04, 0.475321
1881.73, 0.474663
1882.41, 0.474224
1883.09, 0.474224
1883.78, 0.474297
1884.46, 0.473420
1885.15, 0.472834
1885.83, 0.472542
1886.52, 0.472395
1887.21, 0.472030
1887.89, 0.471298
1888.58, 0.470567
1889.27, 0.470420
1889.96, 0.470347
1890.65, 0.469543
1891.34, 0.468957
1892.03, 0.468738
1892.72, 0.468299
1893.41, 0.467860
1894.1, 0.467202
1894.79, 0.466544
1895.49, 0.465958
1896.18, 0.465519
1896.87, 0.464861
1897.57, 0.464495
1898.26, 0.464056
1898.96, 0.463983
1899.65, 0.463544
1900.35, 0.462520
1901.05, 0.461643
1901.74, 0.460911
1902.44, 0.460618
1903.14, 0.459741
1903.84, 0.458790
1904.54, 0.458717
1905.24, 0.458570
1905.94, 0.457693
1906.64, 0.456815
1907.34, 0.455791
1908.04, 0.455132
1908.75, 0.454767
1909.45, 0.454035
1910.15, 0.453450
1910.86, 0.453523
1911.56, 0.453523
1912.27, 0.452792
1912.97, 0.453011
1913.68, 0.452938
1914.39, 0.451768
1915.09, 0.451109
1915.8, 0.451036
1916.51, 0.450963
1917.22, 0.450670
1917.93, 0.450231
1918.64, 0.450158
1919.35, 0.450451
1920.06, 0.450890
1920.77, 0.450817
1921.48, 0.450012
1922.19, 0.449427
1922.91, 0.449134
1923.62, 0.449354
1924.33, 0.449061
1925.05, 0.448549
1925.76, 0.448403
1926.48, 0.448256
1927.19, 0.448183
1927.91, 0.448330
1928.63, 0.448110
1929.35, 0.447525
1930.07, 0.447525
1930.78, 0.447452
1931.5, 0.447159
1932.22, 0.447013
1932.94, 0.446793
1933.66, 0.446647
1934.39, 0.446574
1935.11, 0.446428
1935.83, 0.446281
1936.55, 0.446135
1937.28, 0.445842
1938.0, 0.445769
1938.73, 0.445623
1939.45, 0.445111
1940.18, 0.444818
1940.9, 0.444745
1941.63, 0.444599
1942.36, 0.444453
1943.09, 0.444160
1943.81, 0.443794
1944.54, 0.443648
1945.27, 0.443282
1946.0, 0.443136
1946.73, 0.442916
1947.47, 0.442624
1948.2, 0.442112
1948.93, 0.441600
1949.66, 0.441380
1950.4, 0.441088
1951.13, 0.440868
1951.86, 0.440503
1952.6, 0.440064
1953.34, 0.439625
1954.07, 0.439332
1954.81, 0.439113
1955.55, 0.438820
1956.29, 0.438308
1957.02, 0.438235
1957.76, 0.437796
1958.5, 0.437357
1959.24, 0.437065
1959.98, 0.436699
1960.72, 0.436406
1961.47, 0.436040
1962.21, 0.435675
1962.95, 0.435309
1963.7, 0.435090
1964.44, 0.434724
1965.18, 0.434431
1965.93, 0.434065
1966.67, 0.433627
1967.42, 0.433480
1968.17, 0.433261
1968.92, 0.432749
1969.66, 0.432310
1970.41, 0.431725
1971.16, 0.431359
1971.91, 0.430993
1972.66, 0.430920
1973.41, 0.430627
1974.16, 0.430115
1974.92, 0.430042
1975.67, 0.429969
1976.42, 0.429530
1977.18, 0.429164
1977.93, 0.429311
1978.69, 0.429091
1979.44, 0.428799
1980.2, 0.428799
1980.95, 0.428799
1981.71, 0.428872
1982.47, 0.428799
1983.23, 0.428506
1983.99, 0.428360
1984.74, 0.428433
1985.51, 0.428287
1986.27, 0.428140
1987.03, 0.428140
1987.79, 0.427921
1988.55, 0.427848
1989.32, 0.427775
1990.08, 0.427555
1990.84, 0.427482
1991.61, 0.427628
1992.37, 0.427555
1993.14, 0.427482
1993.9, 0.427482
1994.67, 0.427702
1995.44, 0.427555
1996.21, 0.427189
1996.98, 0.427336
1997.75, 0.427409
1998.52, 0.427702
1999.29, 0.427921
2000.06, 0.427994
2000.83, 0.428067
2001.6, 0.428214
2002.38, 0.428214
2003.15, 0.428214
2003.93, 0.428360
2004.7, 0.428433
2005.48, 0.428726
2006.25, 0.428945
2007.03, 0.429091
2007.81, 0.429164
2008.58, 0.429164
2009.36, 0.429238
2010.14, 0.429457
2010.92, 0.429384
2011.7, 0.429384
2012.48, 0.429603
2013.26, 0.429823
2014.05, 0.429750
2014.83, 0.429750
2015.61, 0.429750
2016.4, 0.429750
2017.18, 0.429457
2017.97, 0.429384
2018.75, 0.429457
2019.54, 0.429384
2020.32, 0.429238
2021.11, 0.428872
2021.9, 0.428726
2022.69, 0.428872
2023.48, 0.428945
2024.27, 0.428799
2025.06, 0.428652
2025.85, 0.428579
2026.64, 0.428652
2027.44, 0.428652
2028.23, 0.428433
2029.02, 0.428360
2029.82, 0.428360
2030.61, 0.428506
2031.41, 0.428726
2032.2, 0.428872
2033.0, 0.428945
2033.8, 0.428945
2034.6, 0.428945
2035.4, 0.429018
2036.2, 0.429457
2037.0, 0.429896
2037.8, 0.429677
2038.6, 0.429677
2039.4, 0.430042
2040.2, 0.430189
2041.01, 0.430701
2041.81, 0.431066
2042.61, 0.431505
2043.42, 0.431725
2044.22, 0.432017
2045.03, 0.432456
2045.84, 0.432895
2046.65, 0.433114
2047.46, 0.433553
2048.26, 0.434139
2049.07, 0.434504
2049.88, 0.434870
2050.69, 0.435090
2051.51, 0.435236
2052.32, 0.435528
2053.13, 0.435821
2053.94, 0.436187
2054.76, 0.436553
2055.57, 0.436918
2056.39, 0.437065
2057.2, 0.437430
2058.02, 0.437503
2058.84, 0.437284
2059.66, 0.437211
2060.48, 0.437357
2061.29, 0.437138
2062.11, 0.437211
2062.94, 0.437284
2063.76, 0.437211
2064.58, 0.436991
2065.4, 0.436991
2066.22, 0.436991
2067.05, 0.436918
2067.87, 0.436772
2068.7, 0.436553
2069.52, 0.436187
2070.35, 0.435894
2071.18, 0.435894
2072.0, 0.435602
2072.83, 0.435163
2073.66, 0.434943
2074.49, 0.434431
2075.32, 0.433919
2076.15, 0.433553
2076.98, 0.433041
2077.82, 0.432456
2078.65, 0.431505
2079.48, 0.430993
2080.32, 0.430554
2081.15, 0.429969
2081.99, 0.429311
2082.83, 0.428579
2083.66, 0.427994
2084.5, 0.427482
2085.34, 0.426970
2086.18, 0.426458
2087.02, 0.425873
2087.86, 0.425214
2088.7, 0.424410
2089.54, 0.423678
2090.39, 0.423020
2091.23, 0.422069
2092.07, 0.421045
2092.92, 0.420313
2093.76, 0.419948
2094.61, 0.419509
2095.45, 0.418851
2096.3, 0.418265
2097.15, 0.418046
2098.0, 0.417900
2098.85, 0.417973
2099.7, 0.417900
2100.55, 0.417607
2101.4, 0.417314
2102.25, 0.416875
2103.1, 0.416583
2103.96, 0.416363
2104.81, 0.416071
2105.67, 0.415559
2106.52, 0.415047
2107.38, 0.414535
2108.24, 0.413803
2109.09, 0.413145
2109.95, 0.412487
2110.81, 0.411901
2111.67, 0.411389
2112.53, 0.410877
2113.39, 0.410658
2114.25, 0.410585
2115.12, 0.410438
2115.98, 0.410365
2116.84, 0.410511
2117.71, 0.410731
2118.58, 0.411097
2119.44, 0.411462
2120.31, 0.411755
2121.18, 0.411974
2122.04, 0.411974
2122.91, 0.411974
2123.78, 0.411901
2124.65, 0.411682
2125.52, 0.411316
2126.4, 0.410804
2127.27, 0.410219
2128.14, 0.409707
2129.02, 0.409049
2129.89, 0.408098
2130.77, 0.407366
2131.64, 0.406854
2132.52, 0.406269
2133.4, 0.405976
2134.27, 0.405976
2135.15, 0.406196
2136.03, 0.406269
2136.91, 0.406488
2137.79, 0.406781
2138.68, 0.407147
2139.56, 0.407586
2140.44, 0.408171
2141.33, 0.408610
2142.21, 0.409049
2143.1, 0.409195
2143.99, 0.409707
2144.87, 0.410365
2145.76, 0.410877
2146.65, 0.411170
2147.54, 0.411755
2148.43, 0.412487
2149.32, 0.412999
2150.21, 0.413437
2151.1, 0.414023
2151.99, 0.414462
2152.89, 0.414827
2153.78, 0.414974
2154.68, 0.415412
2155.57, 0.415851
2156.47, 0.416071
2157.37, 0.416217
2158.27, 0.416583
2159.16, 0.416729
2160.06, 0.417022
2160.96, 0.417168
2161.86, 0.417168
2162.77, 0.417168
2163.67, 0.417388
2164.57, 0.417388
2165.48, 0.417241
2166.38, 0.417101
2167.29, 0.417381
2168.2, 0.417381
2169.1, 0.417381
2170.01, 0.417241
2170.92, 0.417241
2171.83, 0.417171
2172.74, 0.417241
2173.65, 0.417031
2174.56, 0.416961
2175.47, 0.416681
2176.39, 0.416681
2177.3, 0.416751
2178.22, 0.416681
2179.13, 0.415981
2180.05, 0.415911
2180.96, 0.416191
2181.88, 0.416471
2182.8, 0.416051
2183.72, 0.415421
2184.64, 0.415281
2185.56, 0.415421
2186.48, 0.415561
2187.41, 0.416051
2188.33, 0.415491
2189.25, 0.414651
2190.18, 0.414371
2191.1, 0.414371
2192.03, 0.414371
2192.96, 0.413811
2193.89, 0.413461
2194.82, 0.413741
2195.74, 0.414021
2196.68, 0.413811
2197.61, 0.412971
2198.54, 0.413181
2199.47, 0.413321
2200.4, 0.412971
2201.34, 0.412481
2202.28, 0.412341
2203.21, 0.411991
2204.15, 0.411641
2205.08, 0.411431
2206.02, 0.411151
2206.96, 0.410521
2207.9, 0.410451
2208.84, 0.410591
2209.78, 0.410031
2210.73, 0.409540
2211.67, 0.409190
2212.61, 0.408350
2213.56, 0.407720
2214.5, 0.407370
2215.45, 0.407020
2216.4, 0.406460
2217.35, 0.405550
2218.3, 0.405410
2219.24, 0.404780
2220.2, 0.403730
2221.15, 0.403520
2222.1, 0.402820
2223.05, 0.401700
2224.0, 0.400650
2224.96, 0.399740
2225.91, 0.398899
2226.87, 0.397499
2227.83, 0.395889
2228.79, 0.394419
2229.74, 0.392949
2230.7, 0.391269
2231.66, 0.389168
2232.63, 0.387208
2233.59, 0.384898
2234.55, 0.382308
2235.51, 0.379858
2236.48, 0.377197
2237.44, 0.373977
2238.41, 0.371247
2239.38, 0.369076
2240.34, 0.367046
2241.31, 0.364736
2242.28, 0.362776
2243.25, 0.361656
2244.22, 0.360606
2245.19, 0.359696
2246.17, 0.359136
2247.14, 0.358155
2248.12, 0.356685
2249.09, 0.355215
2250.07, 0.354515
2251.04, 0.354375
2252.02, 0.354305
2253.0, 0.354235
2253.98, 0.354165
2254.96, 0.354095
2255.94, 0.354305
2256.92, 0.354445
2257.91, 0.353955
2258.89, 0.352905
2259.88, 0.351435
2260.86, 0.349895
2261.85, 0.347654
2262.83, 0.344644
2263.82, 0.341284
2264.81, 0.337153
2265.8, 0.332883
2266.79, 0.328822
2267.78, 0.324552
2268.78, 0.320912
2269.77, 0.317901
2270.76, 0.315801
2271.76, 0.314681
2272.75, 0.313491
2273.75, 0.312861
2274.75, 0.312861
2275.75, 0.312861
2276.75, 0.312651
2277.75, 0.313211
2278.75, 0.313631
2279.75, 0.313841
2280.75, 0.313491
2281.76, 0.313001
2282.76, 0.312371
2283.77, 0.311391
2284.77, 0.310201
2285.78, 0.308591
2286.79, 0.306560
2287.8, 0.304530
2288.81, 0.302220
2289.82, 0.299490
2290.83, 0.297179
2291.84, 0.295009
2292.86, 0.292769
2293.87, 0.291019
2294.89, 0.289619
2295.91, 0.288429
2296.92, 0.287798
2297.94, 0.286958
2298.96, 0.285698
2299.98, 0.284088
2301.0, 0.282548
2302.02, 0.280868
2303.04, 0.279188
2304.07, 0.277367
2305.09, 0.275057
2306.12, 0.272537
2307.15, 0.270227
2308.17, 0.267846
2309.2, 0.265116
2310.23, 0.262596
2311.26, 0.259796
2312.29, 0.256995
2313.32, 0.253845
2314.35, 0.250345
2315.39, 0.246844
2316.42, 0.242994
2317.46, 0.238584
2318.5, 0.234663
2319.53, 0.230603
2320.57, 0.226682
2321.61, 0.222972
2322.65, 0.220032
2323.69, 0.218072
2324.73, 0.217231
2325.78, 0.218282
2326.82, 0.220522
2327.86, 0.223042
2328.91, 0.225352
2329.96, 0.226892
2331.01, 0.227943
2332.05, 0.228783
2333.1, 0.229483
2334.15, 0.229553
2335.21, 0.229973
2336.26, 0.231303
2337.31, 0.233403
2338.36, 0.235923
2339.42, 0.239774
2340.48, 0.243974
2341.53, 0.248735
2342.59, 0.254265
2343.65, 0.260216
2344.71, 0.266866
2345.77, 0.274427
2346.83, 0.281568
2347.9, 0.288078
2348.96, 0.293399
2350.02, 0.297599
2351.09, 0.301170
2352.16, 0.304110
2353.23, 0.306210
2354.29, 0.307610
2355.36, 0.309081
2356.43, 0.309991
2357.51, 0.310621
2358.58, 0.311181
2359.65, 0.311671
2360.73, 0.312441
2361.8, 0.312581
2362.88, 0.311461
2363.96, 0.310271
2365.03, 0.308941
2366.11, 0.306350
2367.19, 0.303200
2368.27, 0.299770
2369.36, 0.296129
2370.44, 0.292629
2371.53, 0.289479
2372.61, 0.286958
2373.7, 0.285278
2374.78, 0.284438
2375.87, 0.283528
2376.96, 0.282968
2378.05, 0.283108
2379.14, 0.283388
2380.24, 0.284088
2381.33, 0.285208
2382.42, 0.286188
2383.52, 0.287028
2384.61, 0.288008
2385.71, 0.288989
2386.81, 0.289269
2387.91, 0.288849
2389.01, 0.288569
2390.11, 0.287588
2391.22, 0.286258
2392.32, 0.284858
2393.42, 0.283668
2394.53, 0.282128
2395.64, 0.280798
2396.74, 0.280238
2397.85, 0.280308
2398.96, 0.280448
2400.07, 0.280588
2401.18, 0.280448
2402.3, 0.280308
2403.41, 0.280518
2404.52, 0.280308
2405.64, 0.279888
2406.76, 0.280028
2407.88, 0.280168
2408.99, 0.280238
2410.11, 0.279958
2411.23, 0.279538
2412.36, 0.279398
2413.48, 0.279468
2414.6, 0.279328
2415.73, 0.279118
2416.85, 0.278698
2417.98, 0.278488
2419.11, 0.278418
2420.24, 0.278208
2421.37, 0.277717
2422.5, 0.278067
2423.64, 0.278488
2424.77, 0.279258
2425.9, 0.280308
2427.04, 0.280378
2428.18, 0.279398
2429.31, 0.278558
2430.45, 0.277717
2431.59, 0.276107
2432.73, 0.273867
2433.88, 0.271277
2435.02, 0.269177
2436.16, 0.267496
2437.31, 0.266096
2438.45, 0.265396
2439.6, 0.265116
2440.75, 0.264836
2441.9, 0.264696
2443.05, 0.264836
2444.2, 0.265746
2445.35, 0.267356
2446.51, 0.269317
2447.67, 0.271767
2448.82, 0.274847
2449.98, 0.277507
2451.14, 0.279888
2452.3, 0.282198
2453.46, 0.284438
2454.62, 0.286748
2455.78, 0.288709
2456.94, 0.289829
2458.11, 0.290529
2459.28, 0.291369
2460.44, 0.291859
2461.61, 0.291929
2462.78, 0.291159
2463.95, 0.290249
2465.12, 0.289199
2466.3, 0.287868
2467.47, 0.286538
2468.65, 0.284858
2469.82, 0.283108
2471.0, 0.280938
2472.18, 0.278067
2473.36, 0.275057
2474.54, 0.272187
2475.72, 0.269597
2476.9, 0.266936
2478.08, 0.263856
2479.27, 0.261126
2480.46, 0.258816
2481.64, 0.256435
2482.83, 0.254545
2484.02, 0.253705
2485.21, 0.252865
2486.4, 0.252235
2487.6, 0.252095
2488.79, 0.252375
2489.99, 0.252375
2491.18, 0.252305
2492.38, 0.251955
2493.58, 0.251325
2494.78, 0.250555
2495.98, 0.249575
2497.18, 0.248385
2498.39, 0.246704
2499.59, 0.245094
2500.8, 0.243204
2502.01, 0.240824
2503.21, 0.238654
2504.42, 0.236553
2505.63, 0.234173
2506.84, 0.232493
2508.06, 0.230673
2509.27, 0.229133
2510.49, 0.228223
2511.7, 0.227943
2512.92, 0.228293
2514.14, 0.229063
2515.36, 0.230253
2516.58, 0.231373
2517.8, 0.232633
2519.03, 0.234523
2520.25, 0.236833
2521.48, 0.238934
2522.7, 0.241314
2523.93, 0.243904
2525.16, 0.246214
2526.39, 0.248035
2527.62, 0.249785
2528.86, 0.251745
2530.09, 0.253005
2531.33, 0.253985
2532.56, 0.254755
2533.8, 0.255105
2535.04, 0.255175
2536.28, 0.254895
2537.52, 0.253915
2538.76, 0.253285
2540.01, 0.253075
2541.25, 0.252655
2542.5, 0.252445
2543.75, 0.252305
2544.99, 0.252095
2546.24, 0.252095
2547.49, 0.251815
2548.75, 0.251325
2550.0, 0.250765
2551.26, 0.250415
2552.51, 0.249645
2553.77, 0.248175
2555.03, 0.246564
2556.29, 0.244884
2557.55, 0.243274
2558.81, 0.242294
2560.08, 0.241874
2561.34, 0.242014
2562.61, 0.242434
2563.88, 0.243274
2565.14, 0.243834
2566.41, 0.244674
2567.68, 0.246634
2568.96, 0.248945
2570.23, 0.250065
2571.51, 0.251185
2572.78, 0.253145
2574.06, 0.253845
2575.34, 0.254195
2576.62, 0.255595
2577.9, 0.256225
2579.18, 0.256715
2580.47, 0.257695
2581.75, 0.258606
2583.04, 0.259866
2584.32, 0.260356
2585.61, 0.260076
2586.9, 0.260846
2588.2, 0.261336
2589.49, 0.261826
2590.78, 0.262176
2592.08, 0.263156
2593.37, 0.265746
2594.67, 0.268617
2595.97, 0.268337
2597.27, 0.267636
2598.57, 0.267636
2599.88, 0.268617
2601.18, 0.269387
2602.49, 0.269527
2603.79, 0.270017
2605.1, 0.270927
2606.41, 0.270507
2607.72, 0.269737
2609.03, 0.269527
2610.35, 0.269667
2611.66, 0.269597
2612.98, 0.269737
2614.3, 0.269877
2615.62, 0.271137
2616.94, 0.271767
2618.26, 0.271627
2619.58, 0.272817
2620.91, 0.273167
2622.23, 0.272257
2623.56, 0.272537
2624.89, 0.273377
2626.22, 0.274147
2627.55, 0.273517
2628.88, 0.273937
2630.21, 0.274707
2631.55, 0.273587
2632.89, 0.272817
2634.22, 0.272467
2635.56, 0.271627
2636.9, 0.270857
2638.25, 0.269807
2639.59, 0.268757
2640.93, 0.266936
2642.28, 0.264556
2643.63, 0.262106
2644.98, 0.259516
2646.33, 0.255525
2647.68, 0.250975
2649.03, 0.246984
2650.39, 0.243694
2651.74, 0.241664
2653.1, 0.240264
2654.46, 0.239424
2655.82, 0.238864
2657.18, 0.238514
2658.54, 0.239004
2659.9, 0.238584
2661.27, 0.237533
2662.64, 0.236413
2664.01, 0.235993
2665.38, 0.235013
2666.74, 0.232703
2668.12, 0.229763
2669.49, 0.228223
2670.87, 0.224652
2672.24, 0.219402
2673.62, 0.215271
2675.0, 0.211421
2676.38, 0.206940
2677.76, 0.200850
2679.15, 0.194129
2680.54, 0.186778
2681.92, 0.179498
2683.31, 0.171937
2684.7, 0.163536
2686.09, 0.154085
2687.48, 0.142954
2688.88, 0.130213
2690.27, 0.115441
2691.67, 0.0989200
2693.07, 0.0800180
2694.47, 0.0599960
2695.87, 0.0415140
2697.27, 0.0260430
2698.67, 0.0151210
2700.08, 0.0100110
2701.49, 0.00868100
2702.9, 0.00812100
2704.31, 0.00728100
2705.72, 0.00616100
2707.13, 0.00539100
2708.54, 0.00539100
2709.96, 0.00546100
2711.38, 0.00553100
2712.8, 0.00567100
2714.22, 0.00581100
2715.64, 0.00609100
2717.06, 0.00672100
2718.49, 0.00742100
2719.91, 0.00812100
2721.34, 0.00861100
2722.77, 0.00903100
2724.2, 0.00945100
2725.63, 0.00987100
2727.07, 0.00994100
2728.5, 0.00980100
2729.94, 0.0100110
2731.38, 0.0102210
2732.82, 0.0102210
2734.26, 0.0103610
2735.7, 0.0107810
2737.15, 0.0113410
2738.59, 0.0118310
2740.04, 0.0121810
2741.49, 0.0126010
2742.94, 0.0133010
2744.39, 0.0144210
2745.84, 0.0161720
2747.3, 0.0182720
2748.76, 0.0208620
2750.21, 0.0235220
2751.67, 0.0263230
2753.14, 0.0289130
2754.6, 0.0317130
2756.06, 0.0344430
2757.53, 0.0363340
2759.0, 0.0379440
2760.46, 0.0391340
2761.94, 0.0390640
2763.41, 0.0380840
2764.88, 0.0364740
2766.36, 0.0342330
2767.83, 0.0318530
2769.31, 0.0291230
2770.79, 0.0264630
2772.27, 0.0243620
2773.76, 0.0228920
2775.24, 0.0221220
2776.73, 0.0218420
2778.22, 0.0215620
2779.71, 0.0217720
2781.2, 0.0223320
2782.69, 0.0228220
2784.18, 0.0233120
2785.68, 0.0238020
2787.18, 0.0242920
2788.68, 0.0246420
2790.18, 0.0250620
2791.68, 0.0253430
2793.19, 0.0253430
2794.69, 0.0252720
2796.2, 0.0252720
2797.71, 0.0249920
2799.22, 0.0245020
2800.73, 0.0239420
2802.24, 0.0231020
2803.76, 0.0217720
2805.28, 0.0207220
2806.8, 0.0200220
2808.32, 0.0194620
2809.84, 0.0187620
2811.36, 0.0182020
2812.89, 0.0181320
2814.42, 0.0177120
2815.94, 0.0174320
2817.48, 0.0175020
2819.01, 0.0177820
2820.54, 0.0179220
2822.08, 0.0182720
2823.61, 0.0189020
2825.15, 0.0195320
2826.69, 0.0201620
2828.23, 0.0210720
2829.78, 0.0219120
2831.32, 0.0228220
2832.87, 0.0241520
2834.42, 0.0254830
2835.97, 0.0267430
2837.52, 0.0281430
2839.08, 0.0297530
2840.63, 0.0312230
2842.19, 0.0329030
2843.75, 0.0347230
2845.31, 0.0365440
2846.87, 0.0380140
2848.44, 0.0394840
2850.0, 0.0410240
2851.57, 0.0424940
2853.14, 0.0438240
2854.71, 0.0448740
2856.28, 0.0461350
2857.86, 0.0473950
2859.43, 0.0485850
2861.01, 0.0494950
2862.59, 0.0504050
2864.17, 0.0513850
2865.76, 0.0522950
2867.34, 0.0528550
2868.93, 0.0532750
2870.52, 0.0538350
2872.11, 0.0541150
2873.7, 0.0541150
2875.29, 0.0543250
2876.89, 0.0547450
2878.49, 0.0546050
2880.08, 0.0541150
2881.69, 0.0538350
2883.29, 0.0533450
2884.89, 0.0527150
2886.5, 0.0522950
2888.11, 0.0517350
2889.72, 0.0511750
2891.33, 0.0506150
2892.94, 0.0499150
2894.56, 0.0492850
2896.17, 0.0486550
2897.79, 0.0476750
2899.42, 0.0467650
2901.04, 0.0462050
2902.66, 0.0454340
2904.29, 0.0447340
2905.92, 0.0438940
2907.55, 0.0431240
2909.18, 0.0427040
2910.81, 0.0421440
2912.45, 0.0415840
2914.08, 0.0410940
2915.72, 0.0406740
2917.36, 0.0401140
2919.01, 0.0399040
2920.65, 0.0398340
2922.3, 0.0394840
2923.94, 0.0394140
2925.59, 0.0394140
2927.25, 0.0392740
2928.9, 0.0392740
2930.56, 0.0390640
2932.21, 0.0388540
2933.87, 0.0389940
2935.53, 0.0391340
2937.2, 0.0392040
2938.86, 0.0392040
2940.53, 0.0392740
2942.2, 0.0392040
2943.87, 0.0393440
2945.54, 0.0395540
2947.22, 0.0396240
2948.89, 0.0399740
2950.57, 0.0403240
2952.25, 0.0408140
2953.93, 0.0413040
2955.62, 0.0418640
2957.3, 0.0424940
2958.99, 0.0429840
2960.68, 0.0437540
2962.37, 0.0447340
2964.07, 0.0456450
2965.76, 0.0466250
2967.46, 0.0478150
2969.16, 0.0490750
2970.86, 0.0504050
2972.56, 0.0516650
2974.27, 0.0527850
2975.98, 0.0539050
2977.69, 0.0551650
2979.4, 0.0561460
2981.11, 0.0574760
2982.83, 0.0588060
2984.54, 0.0598560
2986.26, 0.0607660
2987.98, 0.0618860
2989.71, 0.0632160
2991.43, 0.0641260
2993.16, 0.0648260
2994.89, 0.0657360
2996.62, 0.0667170
2998.35, 0.0675570
3000.09, 0.0682570
3001.83, 0.0688870
3003.57, 0.0694470
3005.31, 0.0703570
3007.05, 0.0711270
3008.79, 0.0718970
3010.54, 0.0724570
3012.29, 0.0727370
3014.04, 0.0732270
3015.8, 0.0739270
3017.55, 0.0742770
3019.31, 0.0748370
3021.07, 0.0754670
3022.83, 0.0760280
3024.59, 0.0764480
3026.36, 0.0767980
3028.13, 0.0773580
3029.9, 0.0777780
3031.67, 0.0781980
3033.44, 0.0786880
3035.22, 0.0790380
3037.0, 0.0793880
3038.78, 0.0798080
3040.56, 0.0801580
3042.34, 0.0805080
3044.13, 0.0808580
3045.92, 0.0814880
3047.71, 0.0820480
3049.5, 0.0824680
3051.3, 0.0828880
3053.09, 0.0832380
3054.89, 0.0834480
3056.69, 0.0838680
3058.5, 0.0847080
3060.3, 0.0852680
3062.11, 0.0856180
3063.92, 0.0861790
3065.73, 0.0866690
3067.55, 0.0870890
3069.36, 0.0877190
3071.18, 0.0882090
3073.0, 0.0885590
3074.82, 0.0887690
3076.65, 0.0891890
3078.48, 0.0892590
3080.31, 0.0893990
3082.14, 0.0896790
3083.97, 0.0898890
3085.8, 0.0900290
3087.64, 0.0901690
3089.48, 0.0902390
3091.33, 0.0903790
3093.17, 0.0907290
3095.02, 0.0910090
3096.87, 0.0911490
3098.72, 0.0914290
3100.57, 0.0917090
3102.43, 0.0919890
3104.28, 0.0925490
3106.14, 0.0931090
3108.01, 0.0934590
3109.87, 0.0937390
3111.74, 0.0940890
3113.61, 0.0946490
3115.48, 0.0949290
3117.35, 0.0951390
3119.23, 0.0956290
3121.1, 0.0958390
3122.98, 0.0959090
3124.87, 0.0962600
3126.75, 0.0966100
3128.64, 0.0970300
3130.53, 0.0973800
3132.42, 0.0976600
3134.31, 0.0980800
3136.21, 0.0985000
3138.11, 0.0989900
3140.01, 0.0994100
3141.91, 0.100110
3143.82, 0.100880
3145.73, 0.101580
3147.64, 0.102210
3149.55, 0.102840
3151.46, 0.103260
3153.38, 0.103750
3155.3, 0.104310
3157.22, 0.105010
3159.14, 0.105640
3161.07, 0.106270
3163.0, 0.106761
3164.93, 0.107111
3166.86, 0.107601
3168.8, 0.108301
3170.74, 0.108931
3172.68, 0.109281
3174.62, 0.109911
3176.56, 0.110681
3178.51, 0.111241
3180.46, 0.111801
3182.42, 0.112361
3184.37, 0.112781
3186.33, 0.113201
3188.29, 0.113621
3190.25, 0.114181
3192.21, 0.114881
3194.18, 0.115441
3196.15, 0.115861
3198.12, 0.116492
3200.09, 0.117052
3202.07, 0.117402
3204.05, 0.117542
3206.03, 0.117892
3208.02, 0.118312
3210.0, 0.118662
3211.99, 0.118942
3213.98, 0.118872
3215.98, 0.118872
3217.97, 0.118872
3219.97, 0.118662
3221.97, 0.118452
3223.98, 0.118242
3225.98, 0.118032
3227.99, 0.118102
3230.0, 0.118312
3232.02, 0.118592
3234.03, 0.118872
3236.05, 0.119222
3238.07, 0.119712
3240.1, 0.120062
3242.12, 0.120622
3244.15, 0.121322
3246.18, 0.121952
3248.22, 0.122372
3250.25, 0.122792
3252.29, 0.123492
3254.33, 0.124052
3256.38, 0.124262
3258.43, 0.124612
3260.47, 0.125172
3262.53, 0.125592
3264.58, 0.125802
3266.64, 0.126152
3268.7, 0.126573
3270.76, 0.126713
3272.82, 0.127133
3274.89, 0.127553
3276.96, 0.127903
3279.04, 0.128253
3281.11, 0.128463
3283.19, 0.128813
3285.27, 0.129443
3287.35, 0.129863
3289.44, 0.130283
3291.53, 0.130843
3293.62, 0.131473
3295.71, 0.132173
3297.81, 0.132943
3299.91, 0.133503
3302.01, 0.134343
3304.11, 0.135183
3306.22, 0.135813
3308.33, 0.136514
3310.44, 0.137354
3312.56, 0.138124
3314.68, 0.138824
3316.8, 0.139314
3318.92, 0.139804
3321.05, 0.140644
3323.18, 0.141484
3325.31, 0.141834
3327.44, 0.142114
3329.58, 0.142254
3331.72, 0.142604
3333.86, 0.143024
3336.01, 0.143164
3338.16, 0.143164
3340.31, 0.142954
3342.46, 0.142744
3344.61, 0.142394
3346.77, 0.141974
3348.94, 0.141834
3351.1, 0.141554
3353.27, 0.141204
3355.44, 0.140714
3357.61, 0.139804
3359.79, 0.138754
3361.97, 0.137704
3364.15, 0.136934
3366.33, 0.136163
3368.52, 0.135463
3370.71, 0.135043
3372.9, 0.134833
3375.1, 0.135113
3377.3, 0.135883
3379.5, 0.136864
3381.71, 0.137984
3383.91, 0.138894
3386.12, 0.139454
3388.34, 0.139944
3390.55, 0.140224
3392.77, 0.139944
3394.99, 0.139034
3397.22, 0.138124
3399.45, 0.137214
3401.68, 0.136303
3403.91, 0.135463
3406.15, 0.134903
3408.39, 0.134623
3410.63, 0.134553
3412.87, 0.135113
3415.12, 0.136093
3417.37, 0.137354
3419.63, 0.139244
3421.88, 0.141414
3424.14, 0.143514
3426.41, 0.145684
3428.67, 0.147785
3430.94, 0.149465
3433.21, 0.151005
3435.49, 0.152615
3437.77, 0.153945
3440.05, 0.155205
3442.33, 0.156325
3444.62, 0.157376
3446.91, 0.158566
3449.2, 0.159686
3451.5, 0.160736
3453.8, 0.161576
3456.1, 0.162416
3458.41, 0.163046
3460.72, 0.163536
3463.03, 0.163816
3465.34, 0.163956
3467.66, 0.163606
3469.98, 0.163326
3472.31, 0.163326
3474.63, 0.163466
3476.96, 0.163606
3479.3, 0.163816
3481.64, 0.164236
3483.97, 0.164726
3486.32, 0.164936
3488.66, 0.165006
3491.01, 0.164796
3493.36, 0.164726
3495.72, 0.164656
3498.08, 0.164726
3500.44, 0.165216
3502.81, 0.166406
3505.18, 0.168437
3507.55, 0.170817
3509.92, 0.173267
3512.3, 0.175787
3514.68, 0.178308
3517.06, 0.180618
3519.45, 0.182788
3521.84, 0.184748
3524.24, 0.186428
3526.64, 0.187969
3529.04, 0.189369
3531.44, 0.190419
3533.85, 0.191609
3536.26, 0.192449
3538.67, 0.193359
3541.09, 0.194339
3543.51, 0.195249
3545.93, 0.195949
3548.36, 0.196509
3550.79, 0.196999
3553.22, 0.197490
3555.66, 0.198120
3558.1, 0.198890
3560.54, 0.199660
3562.99, 0.200430
3565.44, 0.201060
3567.9, 0.201620
3570.35, 0.202180
3572.81, 0.202740
3575.28, 0.203230
3577.75, 0.203580
3580.22, 0.204000
3582.69, 0.204490
3585.17, 0.205050
3587.65, 0.205540
3590.14, 0.205960
3592.62, 0.206380
3595.11, 0.206940
3597.61, 0.207290
3600.11, 0.207781
3602.61, 0.208061
3605.11, 0.208411
3607.62, 0.208901
3610.14, 0.209321
3612.65, 0.209671
3615.17, 0.210091
3617.69, 0.210371
3620.22, 0.210721
3622.75, 0.211211
3625.28, 0.211561
3627.82, 0.211841
3630.36, 0.212191
3632.9, 0.212471
3635.45, 0.212681
3638.0, 0.213031
3640.56, 0.213451
3643.12, 0.213731
3645.68, 0.214011
3648.24, 0.214431
3650.81, 0.214851
3653.39, 0.215061
3655.96, 0.215271
3658.54, 0.215551
3661.13, 0.215831
3663.71, 0.216181
3666.3, 0.216601
3668.9, 0.216951
3671.5, 0.217371
3674.1, 0.217582
3676.7, 0.217722
3679.31, 0.217862
3681.93, 0.218072
3684.54, 0.218212
3687.17, 0.218352
3689.79, 0.218212
3692.42, 0.217792
3695.05, 0.217301
3697.69, 0.217161
3700.32, 0.217511
3702.97, 0.217932
3705.61, 0.218422
3708.27, 0.219332
3710.92, 0.220172
3713.58, 0.220732
3716.24, 0.221152
3718.91, 0.221572
3721.58, 0.221992
3724.25, 0.222552
3726.93, 0.223042
3729.61, 0.223462
3732.29, 0.223882
3734.98, 0.224092
3737.67, 0.224372
3740.37, 0.224652
3743.07, 0.224792
3745.78, 0.225072
3748.49, 0.225212
3751.2, 0.225282
3753.91, 0.225562
3756.63, 0.225912
3759.36, 0.226192
3762.09, 0.226472
3764.82, 0.226682
3767.55, 0.226892
3770.29, 0.227172
3773.04, 0.227382
3775.78, 0.227592
3778.54, 0.227873
3781.29, 0.228153
3784.05, 0.228363
3786.82, 0.228713
3789.59, 0.228993
3792.36, 0.229063
3795.13, 0.229343
3797.92, 0.229553
3800.7, 0.229693
3803.49, 0.229903
3806.28, 0.229973
3809.08, 0.230043
3811.88, 0.230253
3814.68, 0.230463
3817.49, 0.230743
3820.31, 0.231093
3823.12, 0.231373
3825.94, 0.231443
3828.77, 0.231513
3831.6, 0.231723
3834.43, 0.232003
3837.27, 0.232283
3840.11, 0.232493
3842.96, 0.232493
3845.81, 0.232633
3848.67, 0.232913
3851.53, 0.233193
3854.39, 0.233333
3857.26, 0.233403
3860.13, 0.233753
3863.01, 0.233893
3865.89, 0.234103
3868.77, 0.234313
3871.66, 0.234383
3874.55, 0.234453
3877.45, 0.234453
3880.35, 0.234593
3883.26, 0.234733
3886.17, 0.234943
3889.09, 0.235153
3892.01, 0.235293
3894.93, 0.235293
3897.86, 0.235433
3900.79, 0.235643
3903.73, 0.235713
3906.67, 0.235713
3909.62, 0.235783
3912.57, 0.235853
3915.52, 0.235993
3918.48, 0.235993
3921.45, 0.235993
3924.42, 0.236133
3927.39, 0.236203
3930.37, 0.236203
3933.35, 0.236063
3936.34, 0.235993
3939.33, 0.235993
3942.32, 0.236133
3945.32, 0.236133
3948.33, 0.236133
3951.34, 0.236133
3954.35, 0.236133
3957.37, 0.236203
3960.39, 0.236133
3963.42, 0.236063
3966.45, 0.236063
3969.49, 0.236063
3972.53, 0.235993
3975.58, 0.235853
3978.63, 0.235783
3981.68, 0.235853
3984.75, 0.235923
3987.81, 0.235923
3990.88, 0.235643
3993.95, 0.235573
3997.03, 0.235573
4000.12, 0.235503
4003.21, 0.235363
4006.3, 0.235223
4009.4, 0.235293
4012.5, 0.235223
4015.61, 0.235083
4018.72, 0.234943
4021.84, 0.234733
4024.96, 0.234523
4028.09, 0.234453
4031.22, 0.234523
4034.36, 0.234453
4037.5, 0.234313
4040.65, 0.234243
4043.8, 0.234103
4046.96, 0.233893
4050.12, 0.233753
4053.29, 0.233613
4056.46, 0.233473
4059.64, 0.233403
4062.82, 0.233333
4066.0, 0.233123
4069.19, 0.232913
4072.39, 0.232773
4075.59, 0.232773
4078.8, 0.232633
4082.01, 0.232423
4085.23, 0.232283
4088.45, 0.232143
4091.68, 0.232003
4094.91, 0.231863
4098.15, 0.231723
4101.39, 0.231583
4104.63, 0.231373
4107.89, 0.231233
4111.14, 0.231093
4114.41, 0.230953
4117.67, 0.230813
4120.95, 0.230603
4124.23, 0.230463
4127.51, 0.230393
4130.8, 0.230113
4134.09, 0.229903
4137.39, 0.229833
4140.7, 0.229693
4144.01, 0.229483
4147.32, 0.229413
4150.64, 0.229133
4153.97, 0.228853
4157.3, 0.228853
4160.64, 0.228713
4163.98, 0.228363
4167.33, 0.228153
4170.68, 0.228083
4174.04, 0.227803
4177.4, 0.227452
4180.77, 0.227382
4184.14, 0.227382
4187.52, 0.227172
4190.91, 0.226822
4194.3, 0.226682
4197.69, 0.226682
4201.1, 0.226682
4204.5, 0.226472
4207.92, 0.226332
4211.34, 0.226122
4214.76, 0.225982
4218.19, 0.225912
4221.62, 0.225772
4225.06, 0.225562
4228.51, 0.225352
4231.96, 0.225072
4235.42, 0.224862
4238.88, 0.224652
4242.35, 0.224442
4245.83, 0.224372
4249.31, 0.224232
4252.79, 0.223882
4256.28, 0.223532
4259.78, 0.223322
4263.29, 0.223112
4266.79, 0.223042
4270.31, 0.222902
4273.83, 0.222762
4277.35, 0.222552
4280.89, 0.222342
4284.42, 0.222132
4287.97, 0.222062
4291.52, 0.221922
4295.07, 0.221642
4298.63, 0.221432
4302.2, 0.221292
4305.78, 0.221082
4309.35, 0.220942
4312.94, 0.220872
4316.53, 0.220662
4320.13, 0.220452
4323.73, 0.220242
4327.34, 0.220102
4330.96, 0.219962
4334.58, 0.219752
4338.21, 0.219542
4341.84, 0.219192
4345.48, 0.219052
4349.12, 0.218912
4352.77, 0.218842
4356.43, 0.218842
4360.1, 0.218562
4363.76, 0.218212
4367.44, 0.218002
4371.12, 0.217932
4374.81, 0.217792
4378.51, 0.217722
4382.21, 0.217582
4385.92, 0.217371
4389.63, 0.217161
4393.35, 0.217021
4397.08, 0.216951
4400.81, 0.216811
4404.55, 0.216741
4408.29, 0.216671
4412.04, 0.216461
4415.8, 0.216251
4419.57, 0.216181
4423.34, 0.215971
4427.12, 0.215901
4430.9, 0.215901
4434.69, 0.215761
4438.49, 0.215481
4442.29, 0.215131
4446.1, 0.215061
4449.92, 0.214991
4453.74, 0.214851
4457.57, 0.214711
4461.41, 0.214571
4465.25, 0.214361
4469.1, 0.214221
4472.95, 0.213871
4476.82, 0.213731
4480.69, 0.213591
4484.56, 0.213311
4488.44, 0.213101
4492.33, 0.212821
4496.23, 0.212471
4500.13, 0.212261
4504.04, 0.212051
4507.96, 0.211841
4511.88, 0.211701
4515.81, 0.211211
4519.75, 0.210791
4523.69, 0.210511
4527.65, 0.210231
4531.6, 0.209881
4535.57, 0.209531
4539.54, 0.209041
4543.52, 0.208691
4547.5, 0.208341
4551.5, 0.207921
4555.5, 0.207500
4559.5, 0.207150
4563.52, 0.206800
4567.54, 0.206520
4571.56, 0.206170
4575.6, 0.205890
4579.64, 0.205470
4583.69, 0.205120
4587.75, 0.204700
4591.81, 0.204350
4595.88, 0.203930
4599.96, 0.203510
4604.04, 0.203020
4608.14, 0.202600
4612.24, 0.202250
4616.34, 0.201900
4620.46, 0.201550
4624.58, 0.201200
4628.71, 0.200780
4632.84, 0.200220
4636.99, 0.199590
4641.14, 0.199100
4645.3, 0.198820
4649.47, 0.198470
4653.64, 0.198050
4657.82, 0.197560
4662.01, 0.196929
4666.21, 0.196369
4670.41, 0.196159
4674.62, 0.195879
4678.84, 0.195389
4683.07, 0.194899
4687.3, 0.194409
4691.54, 0.194059
4695.79, 0.193499
4700.05, 0.192939
4704.31, 0.192169
4708.59, 0.191609
4712.87, 0.190839
4717.15, 0.190209
4721.45, 0.189299
4725.76, 0.188389
4730.07, 0.187269
4734.39, 0.186148
4738.72, 0.184748
4743.05, 0.183418
4747.39, 0.182018
4751.75, 0.180408
4756.1, 0.178658
4760.47, 0.176767
4764.85, 0.174807
4769.23, 0.172777
4773.62, 0.170747
4778.02, 0.168507
4782.43, 0.166686
4786.85, 0.165006
4791.27, 0.163536
4795.7, 0.162136
4800.14, 0.161226
4804.59, 0.160596
4809.05, 0.160246
4813.51, 0.160176
4817.99, 0.160246
4822.47, 0.160526
4826.96, 0.160946
4831.46, 0.161436
4835.96, 0.161926
4840.48, 0.162346
4845.0, 0.162696
4849.54, 0.162906
4854.08, 0.163186
4858.63, 0.163396
4863.18, 0.163396
4867.75, 0.163256
4872.33, 0.162906
4876.91, 0.162206
4881.5, 0.161506
4886.1, 0.160456
4890.71, 0.159266
4895.33, 0.158006
4899.96, 0.156675
4904.59, 0.155275
4909.24, 0.154015
4913.89, 0.152895
4918.55, 0.151845
4923.22, 0.150865
4927.9, 0.150165
4932.59, 0.149535
4937.29, 0.149185
4942.0, 0.148765
4946.71, 0.148205
4951.44, 0.147575
4956.17, 0.146945
4960.91, 0.145964
4965.67, 0.144844
4970.43, 0.143934
4975.2, 0.142814
4979.98, 0.141624
4984.76, 0.140644
4989.56, 0.139804
4994.37, 0.139104
4999.18, 0.138614
5004.01, 0.138124
5008.84, 0.137844
5013.69, 0.137774
5018.54, 0.137914
5023.4, 0.138054
5028.28, 0.138194
5033.16, 0.138334
5038.05, 0.138754
5042.95, 0.139174
5047.86, 0.139454
5052.78, 0.139804
5057.71, 0.140014
5062.65, 0.140294
5067.6, 0.140504
5072.56, 0.140854
5077.53, 0.141204
5082.5, 0.141624
5087.49, 0.141834
5092.49, 0.141974
5097.5, 0.142254
5102.51, 0.142604
5107.54, 0.142674
5112.58, 0.142814
5117.62, 0.143094
5122.68, 0.143374
5127.75, 0.143654
5132.82, 0.144004
5137.91, 0.144424
5143.01, 0.144844
5148.12, 0.145264
5153.23, 0.145614
5158.36, 0.145964
5163.5, 0.146244
5168.65, 0.146524
5173.81, 0.146664
5178.98, 0.146805
5184.15, 0.146945
5189.34, 0.146875
5194.54, 0.146734
5199.75, 0.146384
5204.98, 0.145894
5210.21, 0.145404
5215.45, 0.144774
5220.7, 0.143794
5225.96, 0.142884
5231.23, 0.141904
5236.52, 0.140924
5241.81, 0.139734
5247.12, 0.138544
5252.44, 0.137284
5257.76, 0.136093
5263.1, 0.134763
5268.45, 0.133433
5273.81, 0.132103
5279.18, 0.130773
5284.56, 0.129373
5289.95, 0.127833
5295.36, 0.126082
5300.77, 0.124402
5306.2, 0.122722
5311.63, 0.120762
5317.08, 0.118802
5322.54, 0.116842
5328.01, 0.114671
5333.49, 0.112571
5338.98, 0.110541
5344.49, 0.108791
5350.0, 0.106901
5355.53, 0.105010
5361.07, 0.103260
5366.62, 0.101860
5372.18, 0.100600
5377.75, 0.0994800
5383.34, 0.0984300
5388.93, 0.0976600
5394.54, 0.0969600
5400.16, 0.0964700
5405.79, 0.0958390
5411.44, 0.0952790
5417.09, 0.0949990
5422.76, 0.0945790
5428.43, 0.0938090
5434.12, 0.0931790
5439.83, 0.0925490
5445.54, 0.0919890
5451.26, 0.0912890
5457.0, 0.0907290
5462.75, 0.0901690
5468.52, 0.0892590
5474.29, 0.0883490
5480.08, 0.0875090
5485.88, 0.0864590
5491.69, 0.0856180
5497.51, 0.0849180
5503.35, 0.0840080
5509.2, 0.0831680
5515.06, 0.0824680
5520.93, 0.0817680
5526.82, 0.0811380
5532.71, 0.0805080
5538.63, 0.0800180
5544.55, 0.0795980
5550.49, 0.0794580
5556.44, 0.0793180
5562.4, 0.0791780
5568.37, 0.0790380
5574.36, 0.0791080
5580.36, 0.0789680
5586.37, 0.0786880
5592.4, 0.0783380
5598.44, 0.0779880
5604.49, 0.0775680
5610.56, 0.0771480
5616.63, 0.0766580
5622.73, 0.0759580
5628.83, 0.0751870
5634.95, 0.0746970
5641.08, 0.0742070
5647.23, 0.0732970
5653.39, 0.0723870
5659.56, 0.0713370
5665.74, 0.0702170
5671.94, 0.0693770
5678.15, 0.0684670
5684.38, 0.0675570
5690.62, 0.0667170
5696.87, 0.0656660
5703.14, 0.0647560
5709.42, 0.0640560
5715.72, 0.0632160
5722.03, 0.0623060
5728.35, 0.0613960
5734.69, 0.0604860
5741.03, 0.0597160
5747.4, 0.0590160
5753.78, 0.0582460
5760.17, 0.0578960
5766.58, 0.0574060
5773.0, 0.0564960
5779.44, 0.0557960
5785.88, 0.0550950
5792.35, 0.0544650
5798.83, 0.0539750
5805.32, 0.0533450
5811.83, 0.0528550
5818.35, 0.0523650
5824.89, 0.0516650
5831.45, 0.0506850
5838.01, 0.0497750
5844.59, 0.0489350
5851.19, 0.0481650
5857.8, 0.0473250
5864.43, 0.0462750
5871.07, 0.0452940
5877.73, 0.0447340
5884.4, 0.0436840
5891.09, 0.0425640
5897.79, 0.0414440
5904.5, 0.0401140
5911.23, 0.0391340
5917.98, 0.0382240
5924.75, 0.0372440
5931.53, 0.0366140
5938.32, 0.0360540
5945.13, 0.0352130
5951.96, 0.0345830
5958.8, 0.0340930
5965.65, 0.0337430
5972.53, 0.0336030
5979.42, 0.0334630
5986.32, 0.0334630
5993.24, 0.0334630
6000.18, 0.0332530
6007.13, 0.0331830
6014.1, 0.0332530
6021.08, 0.0330430
6028.09, 0.0329030
6035.1, 0.0329030
6042.14, 0.0329030
6049.19, 0.0327630
6056.25, 0.0322030
6063.34, 0.0317830
6070.44, 0.0314330
6077.55, 0.0308030
6084.69, 0.0301730
6091.84, 0.0296830
6099.0, 0.0291930
6106.19, 0.0287030
6113.39, 0.0280730
6120.61, 0.0274430
6127.84, 0.0269530
6135.09, 0.0266030
6142.36, 0.0263230
6149.65, 0.0259730
6156.95, 0.0256230
6164.27, 0.0252720
6171.61, 0.0250620
6178.97, 0.0251320
6186.34, 0.0251320
6193.73, 0.0249220
6201.14, 0.0248520
6208.57, 0.0248520
6216.01, 0.0248520
6223.47, 0.0249220
6230.95, 0.0250620
6238.45, 0.0250620
6245.97, 0.0252720
6253.5, 0.0256230
6261.06, 0.0259730
6268.63, 0.0263230
6276.21, 0.0267430
6283.82, 0.0270930
6291.45, 0.0273730
6299.1, 0.0275830
6306.76, 0.0277930
6314.44, 0.0281430
6322.14, 0.0283530
6329.86, 0.0284230
6337.6, 0.0287030
6345.35, 0.0288430
6353.13, 0.0287030
6360.92, 0.0287030
6368.74, 0.0287030
6376.57, 0.0286330
6384.43, 0.0286330
6392.3, 0.0286330
6400.19, 0.0286330
6408.1, 0.0289130
6416.03, 0.0290530
6423.98, 0.0287730
6431.95, 0.0289130
6439.94, 0.0290530
6447.95, 0.0293330
6455.98, 0.0296830
6464.03, 0.0301730
6472.1, 0.0308730
6480.19, 0.0316430
6488.31, 0.0325530
6496.44, 0.0333230
6504.59, 0.0340230
6512.76, 0.0350030
6520.95, 0.0361940
6529.16, 0.0371040
6537.4, 0.0379440
6545.65, 0.0388540
6553.92, 0.0399040
6562.22, 0.0407440
6570.54, 0.0416540
6578.88, 0.0421440
6587.23, 0.0424940
6595.61, 0.0427740
6604.02, 0.0429140
6612.44, 0.0430540
6620.89, 0.0431240
6629.35, 0.0434040
6637.84, 0.0434740
6646.35, 0.0431240
6654.88, 0.0427040
6663.44, 0.0424240
6672.01, 0.0422140
6680.61, 0.0420040
6689.23, 0.0415840
6697.88, 0.0410940
6706.54, 0.0407440
6715.23, 0.0401840
6723.94, 0.0396240
6732.67, 0.0392040
6741.42, 0.0387140
6750.2, 0.0381540
6759.0, 0.0377340
6767.82, 0.0374540
6776.67, 0.0371040
6785.54, 0.0366140
6794.44, 0.0360540
6803.35, 0.0354940
6812.29, 0.0352130
6821.26, 0.0350730
6830.24, 0.0349330
6839.25, 0.0346530
6848.29, 0.0345130
6857.35, 0.0344430
6866.43, 0.0342330
6875.54, 0.0337430
6884.67, 0.0333930
6893.82, 0.0328330
6903.0, 0.0324130
6912.2, 0.0321330
6921.43, 0.0317130
6930.69, 0.0312930
6939.96, 0.0309430
6949.27, 0.0307330
6958.59, 0.0305230
6967.95, 0.0301030
6977.33, 0.0297530
6986.73, 0.0295430
6996.16, 0.0293330
7005.61, 0.0290530
7015.09, 0.0288430
7024.6, 0.0286330
7034.13, 0.0284930
7043.69, 0.0283530
7053.27, 0.0281430
7062.88, 0.0278630
7072.52, 0.0276530
7082.18, 0.0275830
7091.87, 0.0274430
7101.58, 0.0273030
7111.32, 0.0272330
7121.09, 0.0271630
7130.88, 0.0270930
7140.71, 0.0270230
7150.56, 0.0268830
7160.43, 0.0266730
7170.33, 0.0264630
7180.27, 0.0261130
7190.23, 0.0259030
7200.21, 0.0257630
7210.23, 0.0255530
7220.27, 0.0252720
7230.34, 0.0249220
7240.44, 0.0245020
7250.56, 0.0241520
7260.72, 0.0238020
7270.9, 0.0235220
7281.12, 0.0231720
7291.36, 0.0227520
7301.63, 0.0224020
7311.93, 0.0220520
7322.25, 0.0218420
7332.61, 0.0215620
7343.0, 0.0213520
7353.41, 0.0210020
7363.86, 0.0205120
7374.33, 0.0200220
7384.83, 0.0196720
7395.37, 0.0193920
7405.93, 0.0189720
7416.53, 0.0184820
7427.15, 0.0179920
7437.81, 0.0176420
7448.5, 0.0174320
7459.22, 0.0170820
7469.96, 0.0167320
7480.74, 0.0164520
7491.55, 0.0160320
7502.39, 0.0156120
7513.27, 0.0153320
7524.17, 0.0150510
7535.11, 0.0147710
7546.08, 0.0145610
7557.08, 0.0142810
7568.11, 0.0140710
7579.17, 0.0138610
7590.27, 0.0136510
7601.4, 0.0135110
7612.56, 0.0133710
7623.76, 0.0132310
7634.98, 0.0130910
7646.24, 0.0130210
7657.54, 0.0128110
7668.87, 0.0127410
7680.23, 0.0126010
7691.62, 0.0124610
7703.05, 0.0122510
7714.51, 0.0121810
7726.01, 0.0120410
7737.54, 0.0118310
7749.11, 0.0116210
7760.71, 0.0115510
7772.35, 0.0112710
7784.02, 0.0110610
7795.72, 0.0108510
7807.46, 0.0105010
7819.23, 0.0100810
7831.04, 0.00987100
7842.89, 0.00959100
7854.77, 0.00938100
7866.69, 0.00924100
7878.65, 0.00896100
7890.64, 0.00861100
7902.67, 0.00840100
7914.74, 0.00833100
7926.84, 0.00798100
7938.98, 0.00763100
7951.16, 0.00742100
7963.37, 0.00728100
7975.62, 0.00707100
7987.91, 0.00672100
8000.24, 0.00644100
8012.6, 0.00623100
8025.01, 0.00616100
8037.45, 0.00602100
8049.93, 0.00588100
8062.45, 0.00567100
8075.01, 0.00553100
8087.61, 0.00525100
8100.24, 0.00497000
8112.91, 0.00476000
8125.63, 0.00462000
8138.39, 0.00441000
8151.18, 0.00434000
8164.02, 0.00434000
8176.9, 0.00413000
8189.81, 0.00385000
8202.77, 0.00364000
8215.77, 0.00350000
8228.82, 0.00322000
8241.9, 0.00308000
8255.02, 0.00287000
8268.19, 0.00259000
8281.39, 0.00259000
8294.65, 0.00266000
8307.94, 0.00259000
8321.28, 0.00231000
8334.66, 0.00203000
8348.08, 0.00203000
8361.54, 0.00203000
8375.05, 0.00196000
8388.6, 0.00182000
8402.2, 0.00168000
8415.84, 0.00168000
8429.52, 0.00161000
8443.25, 0.00147000
8457.02, 0.00147000
8470.84, 0.00140000
8484.7, 0.00126000
8498.61, 0.00112000
8512.57, 0.000980000
8526.57, 0.000910000
8540.62, 0.000910000
8554.71, 0.000840000
8568.85, 0.000770000
8583.04, 0.000700000
8597.27, 0.000700000
8611.55, 0.000490000
8625.88, 0.000420000
8640.26, 0.000350000
8654.68, 0.000420000
8669.16, 0.000490000
8683.68, 0.000420000
8698.25, 0.000350000
8712.87, 0.000280000
8727.53, 0.000350000
8742.25, 0.000560000
8757.02, 0.000630000
8771.83, 0.000490000
8786.7, 0.000560000
8801.62, 0.000630000
8816.59, 0.000700000
8831.61, 0.00105000
8846.68, 0.00119000
8861.8, 0.00119000
8876.97, 0.00175000
8892.2, 0.00224000
8907.48, 0.00259000
8922.81, 0.00322000
8938.2, 0.00392000
8953.63, 0.00497000
8969.13, 0.00616100
8984.67, 0.00777100
9000.27, 0.00959100
9015.92, 0.0114810
9031.63, 0.0136510
9047.39, 0.0158920
9063.21, 0.0174320
9079.08, 0.0183420
9095.01, 0.0191120
9111.0, 0.0198120
9127.04, 0.0199520
9143.13, 0.0196020
9159.28, 0.0189020
9175.49, 0.0180620
9191.76, 0.0172220
9208.09, 0.0161020
9224.47, 0.0149110
9240.92, 0.0137910
9257.42, 0.0126710
9273.98, 0.0119010
9290.6, 0.0112010
9307.28, 0.0106410
9324.02, 0.0103610
9340.82, 0.0102210
9357.68, 0.0100110
9374.6, 0.00994100
9391.58, 0.0100110
9408.62, 0.0100110
9425.73, 0.0100810
9442.9, 0.0102910
9460.13, 0.0106410
9477.42, 0.0110610
9494.78, 0.0114810
9512.2, 0.0123210
9529.69, 0.0130210
9547.24, 0.0137210
9564.86, 0.0147010
9582.54, 0.0158920
9600.28, 0.0172920
9618.1, 0.0185520
9635.97, 0.0200920
9653.92, 0.0221920
9671.93, 0.0247120
9690.01, 0.0277930
9708.16, 0.0315030
9726.37, 0.0356340
9744.65, 0.0395540
9763.0, 0.0433340
9781.43, 0.0469050
9799.92, 0.0497750
9818.48, 0.0521550
9837.1, 0.0543250
9855.8, 0.0562160
9874.58, 0.0581760
9893.42, 0.0602060
9912.34, 0.0624460
9931.33, 0.0646160
9950.39, 0.0667870
9969.52, 0.0689570
9988.74, 0.0711970
10008.0, 0.0732970
10027.4, 0.0751170
10046.8, 0.0767980
10066.3, 0.0784080
10085.9, 0.0797380
10105.6, 0.0809280
10125.3, 0.0820480
10145.1, 0.0828180
10165.0, 0.0833080
10185.0, 0.0834480
10205.0, 0.0829580
10225.2, 0.0824680
10245.4, 0.0823280
10265.7, 0.0825380
10286.0, 0.0828180
10306.5, 0.0830280
10327.0, 0.0826080
10347.6, 0.0816980
10368.3, 0.0809280
10389.1, 0.0795980
10409.9, 0.0777780
10430.9, 0.0754670
10451.9, 0.0727370
10473.0, 0.0698670
10494.2, 0.0669970
10515.5, 0.0644760
10536.9, 0.0616760
10558.4, 0.0589460
10579.9, 0.0569160
10601.5, 0.0549550
10623.3, 0.0529250
10645.1, 0.0511750
10667.0, 0.0494950
10689.0, 0.0479550
10711.1, 0.0458550
10733.2, 0.0432640
10755.5, 0.0412340
10777.9, 0.0390640
10800.3, 0.0369640
10822.9, 0.0351430
10845.5, 0.0333930
10868.2, 0.0317830
10891.1, 0.0305930
10914.0, 0.0297530
10937.0, 0.0291230
10960.2, 0.0284930
10983.4, 0.0279330
11006.7, 0.0276530
11030.1, 0.0275130
11053.6, 0.0275130
11077.3, 0.0275130
11101.0, 0.0273730
11124.8, 0.0273030
11148.7, 0.0273030
11172.7, 0.0274430
11196.9, 0.0277230
11221.1, 0.0278630
11245.4, 0.0280030
11269.9, 0.0281430
11294.4, 0.0279330
11319.1, 0.0275830
11343.9, 0.0273730
11368.8, 0.0273030
11393.7, 0.0273030
11418.8, 0.0273030
11444.0, 0.0269530
11469.4, 0.0266730
11494.8, 0.0266030
11520.3, 0.0262530
11546.0, 0.0259030
11571.8, 0.0256930
11597.7, 0.0249920
11623.7, 0.0245720
11649.8, 0.0246420
11676.0, 0.0245020
11702.4, 0.0242220
11728.9, 0.0237320
11755.5, 0.0233820
11782.2, 0.0231720
11809.0, 0.0226820
11836.0, 0.0219820
11863.0, 0.0214220
11890.3, 0.0212820
11917.6, 0.0210720
11945.0, 0.0209320
11972.6, 0.0204420
12000.4, 0.0198120
12028.2, 0.0192520
12056.2, 0.0187620
12084.3, 0.0179920
12112.5, 0.0172220
12140.9, 0.0165220
12169.4, 0.0157520
12198.0, 0.0149810
12226.8, 0.0145610
12255.7, 0.0142110
12284.7, 0.0137910
12313.9, 0.0136510
12343.2, 0.0135110
12372.7, 0.0132310
12402.3, 0.0131610
12432.0, 0.0132310
12461.9, 0.0133010
12491.9, 0.0132310
12522.1, 0.0131610
12552.4, 0.0126010
12582.9, 0.0122510
12613.5, 0.0119710
12644.3, 0.0115510
12675.2, 0.0112710
12706.3, 0.0112010
12737.5, 0.0107810
12768.9, 0.0102910
12800.4, 0.0103610
12832.1, 0.00987100
12863.9, 0.00889100
12895.9, 0.00847100
12928.1, 0.00805100
12960.4, 0.00763100
12992.9, 0.00756100
13025.5, 0.00721100
13058.3, 0.00665100
13091.3, 0.00630100
13124.4, 0.00630100
13157.8, 0.00637100
13191.2, 0.00595100
13224.9, 0.00546100
13258.7, 0.00511100
13292.7, 0.00504000
13326.9, 0.00469000
13361.2, 0.00413000
13395.7, 0.00364000
13430.4, 0.00343000
13465.3, 0.00371000
13500.4, 0.00336000
13535.7, 0.00308000
13571.1, 0.00329000
13606.7, 0.00308000
13642.5, 0.00259000
13678.5, 0.00231000
13714.7, 0.00231000
13751.1, 0.00224000
13787.6, 0.00231000
13824.4, 0.00238000
13861.4, 0.00252000
13898.5, 0.00231000
13935.9, 0.00224000
13973.5, 0.00217000
14011.2, 0.00217000
14049.2, 0.00203000
14087.4, 0.00196000
14125.8, 0.00203000
14164.3, 0.00224000
14203.2, 0.00238000
14242.2, 0.00259000
14281.4, 0.00287000
14320.9, 0.00308000
14360.5, 0.00315000
14400.4, 0.00301000
14440.5, 0.00329000
14480.9, 0.00434000
14521.4, 0.00525100
14562.2, 0.00595100
14603.3, 0.00707100
14644.5, 0.00861100
14686.0, 0.0101510
14727.7, 0.0121810
14769.7, 0.0145610
14811.9, 0.0170820
14854.3, 0.0200220
14897.0, 0.0237320
14939.9, 0.0277230
14983.1, 0.0317130
15026.5, 0.0356340
15070.2, 0.0396940
15114.2, 0.0434040
15158.3, 0.0465550
15202.8, 0.0494250
15247.5, 0.0524350
15292.5, 0.0548150
15337.7, 0.0568460
15383.2, 0.0582460
15429.0, 0.0600660
15475.1, 0.0622360
15521.4, 0.0633560
15568.0, 0.0644060
15614.9, 0.0656660
15662.1, 0.0669270
15709.6, 0.0688170
15757.3, 0.0695870
15805.4, 0.0696570
15853.7, 0.0697970
15902.3, 0.0694470
15951.2, 0.0688870
16000.5, 0.0679770
16050.0, 0.0669270
16099.8, 0.0657360
16150.0, 0.0635660
16200.5, 0.0616060
16251.3, 0.0595060
16302.4, 0.0572660
16353.8, 0.0540450
16405.5, 0.0508950
16457.6, 0.0477450
16510.0, 0.0445240
16562.8, 0.0415840
16615.9, 0.0385740
16669.3, 0.0357040
16723.1, 0.0329730
16777.2, 0.0308030
16831.7, 0.0292630
16886.5, 0.0284930
16941.7, 0.0278630
16997.2, 0.0265330
17053.1, 0.0251320
17109.4, 0.0243620
17166.1, 0.0240820
17223.1, 0.0242920
17280.5, 0.0241520
17338.3, 0.0235220
17396.5, 0.0229620
17455.1, 0.0221220
17514.0, 0.0221920
17573.4, 0.0221220
17633.2, 0.0218420
17693.4, 0.0221920
17754.0, 0.0213520
17815.0, 0.0205120
17876.4, 0.0201620
17938.3, 0.0195320
18000.5, 0.0186220
18063.3, 0.0177120
18126.4, 0.0168020
18190.0, 0.0156820
18254.1, 0.0141410
18318.6, 0.0128810
18383.5, 0.0121810
18449.0, 0.0109210
18514.9, 0.00959100
18581.2, 0.00973100
18648.0, 0.0102210
18715.4, 0.00959100
18783.2, 0.00903100
18851.5, 0.00924100
18920.3, 0.0101510
18989.6, 0.0114110
19059.4, 0.0135810
19129.7, 0.0163820
19200.6, 0.0200920
19272.0, 0.0244320
19343.9, 0.0298230
19416.3, 0.0357040
19489.3, 0.0424940
19562.8, 0.0500550
19637.0, 0.0581760
19711.6, 0.0638460
19786.8, 0.0696570
19862.6, 0.0747670
19939.0, 0.0786180
20016.0, 0.0830980
20093.6, 0.0876490
20171.8, 0.0942290
20250.6, 0.101510
20330.0, 0.109071
20410.0, 0.116001
20490.7, 0.120902
20572.0, 0.124682
20654.0, 0.129303
20736.6, 0.133363
20819.9, 0.136093
20903.8, 0.139874
20988.5, 0.144284
21073.8, 0.149115
21159.8, 0.151495
21246.5, 0.153665
21334.0, 0.155905
21422.1, 0.154995
21511.0, 0.154085
21600.7, 0.153245
21691.0, 0.152125
21782.1, 0.148975
21874.0, 0.146384
21966.7, 0.145684
22060.2, 0.147085
22154.5, 0.149395
22249.6, 0.151705
22345.5, 0.156675
22442.2, 0.162556
22539.8, 0.162976
22638.2, 0.160456
22737.5, 0.157236
22837.7, 0.151985
22938.7, 0.142044
23040.7, 0.129443
23143.5, 0.116562
23247.3, 0.105080
23352.1, 0.0977300
23457.7, 0.100950
23564.4, 0.105850
23672.0, 0.104310
23780.5, 0.101720
23890.1, 0.0945790
24000.7, 0.0868090
24112.3, 0.0869490
24225.0, 0.0886290
24338.7, 0.0917790
24453.5, 0.0941590
24569.4, 0.0962600
24686.4, 0.0936690
24804.5, 0.0856880
24923.8, 0.0861790
