Database of Origin, USGS Spectral Database
Sample Description, See USGS database for additional info
Date Added,2016-08-10 05:24:47.105917

Data ID,USGS_pig02          
Sample ID, pigeonite_hs199.17856
Mineral Name, pigeonite
Material Class,Inosilicate

Wavelength
1602.52, 0.163339
1603.02, 0.163339
1603.51, 0.163278
1604.01, 0.163037
1604.5, 0.162736
1605.0, 0.162857
1605.5, 0.163399
1606.0, 0.163881
1606.49, 0.164001
1606.99, 0.164001
1607.49, 0.163941
1607.99, 0.164061
1608.49, 0.163941
1608.99, 0.163760
1609.49, 0.163640
1609.99, 0.164423
1610.49, 0.164784
1610.99, 0.164784
1611.49, 0.164904
1611.99, 0.164965
1612.49, 0.165266
1612.99, 0.165206
1613.49, 0.165386
1614.0, 0.165507
1614.5, 0.165507
1615.0, 0.165687
1615.51, 0.165748
1616.01, 0.165928
1616.51, 0.165808
1617.02, 0.165748
1617.52, 0.166169
1618.03, 0.166230
1618.53, 0.166470
1619.04, 0.167012
1619.54, 0.166350
1620.05, 0.166350
1620.55, 0.166952
1621.06, 0.166651
1621.57, 0.166892
1622.08, 0.166711
1622.58, 0.166591
1623.09, 0.167012
1623.6, 0.167675
1624.11, 0.167735
1624.62, 0.167434
1625.13, 0.167615
1625.64, 0.167856
1626.15, 0.168097
1626.66, 0.168157
1627.17, 0.168036
1627.68, 0.168398
1628.19, 0.168759
1628.7, 0.168578
1629.21, 0.168578
1629.72, 0.168759
1630.24, 0.168880
1630.75, 0.168639
1631.26, 0.168819
1631.78, 0.169301
1632.29, 0.169241
1632.8, 0.168940
1633.32, 0.168759
1633.83, 0.169361
1634.35, 0.170084
1634.86, 0.169903
1635.38, 0.169542
1635.9, 0.169723
1636.41, 0.169903
1636.93, 0.169542
1637.45, 0.169723
1637.96, 0.170265
1638.48, 0.170325
1639.0, 0.169903
1639.52, 0.170084
1640.04, 0.169964
1640.56, 0.169663
1641.08, 0.169783
1641.59, 0.169903
1642.11, 0.170205
1642.63, 0.170747
1643.16, 0.170927
1643.68, 0.171048
1644.2, 0.170988
1644.72, 0.171108
1645.24, 0.170988
1645.76, 0.171048
1646.29, 0.171168
1646.81, 0.171530
1647.33, 0.171108
1647.86, 0.171108
1648.38, 0.171289
1648.9, 0.171530
1649.43, 0.171650
1649.95, 0.171469
1650.48, 0.171469
1651.0, 0.171710
1651.53, 0.172072
1652.06, 0.172072
1652.58, 0.171710
1653.11, 0.171168
1653.64, 0.171650
1654.17, 0.172132
1654.69, 0.171831
1655.22, 0.171590
1655.75, 0.171530
1656.28, 0.171770
1656.81, 0.172373
1657.34, 0.172553
1657.87, 0.172192
1658.4, 0.172011
1658.93, 0.172252
1659.46, 0.172433
1659.99, 0.172433
1660.52, 0.172313
1661.05, 0.172252
1661.59, 0.172614
1662.12, 0.172855
1662.65, 0.172734
1663.19, 0.172614
1663.72, 0.172614
1664.26, 0.172132
1664.79, 0.172252
1665.32, 0.172855
1665.86, 0.173336
1666.39, 0.173397
1666.93, 0.173457
1667.47, 0.173638
1668.0, 0.173577
1668.54, 0.173397
1669.08, 0.173156
1669.61, 0.173397
1670.15, 0.173698
1670.69, 0.173517
1671.23, 0.173698
1671.77, 0.173577
1672.31, 0.173095
1672.85, 0.173156
1673.39, 0.173397
1673.93, 0.173878
1674.47, 0.174059
1675.01, 0.173758
1675.55, 0.173397
1676.09, 0.173818
1676.64, 0.174421
1677.18, 0.174180
1677.72, 0.173999
1678.26, 0.174300
1678.81, 0.174722
1679.35, 0.174601
1679.89, 0.174240
1680.44, 0.173999
1680.98, 0.174119
1681.53, 0.174421
1682.07, 0.174421
1682.62, 0.174481
1683.17, 0.174782
1683.71, 0.175143
1684.26, 0.175023
1684.81, 0.175083
1685.36, 0.175203
1685.9, 0.175264
1686.45, 0.174902
1687.0, 0.174782
1687.55, 0.174963
1688.1, 0.175565
1688.65, 0.175565
1689.2, 0.174842
1689.75, 0.174481
1690.3, 0.174481
1690.85, 0.174842
1691.41, 0.174963
1691.96, 0.175505
1692.51, 0.175806
1693.06, 0.175685
1693.61, 0.175866
1694.17, 0.176167
1694.72, 0.175746
1695.28, 0.175324
1695.83, 0.175565
1696.39, 0.175746
1696.94, 0.176047
1697.5, 0.176167
1698.05, 0.175866
1698.61, 0.175806
1699.17, 0.175806
1699.72, 0.175806
1700.28, 0.175806
1700.84, 0.175866
1701.4, 0.175986
1701.95, 0.176047
1702.51, 0.176227
1703.07, 0.176047
1703.63, 0.175685
1704.19, 0.175685
1704.75, 0.175866
1705.31, 0.176288
1705.88, 0.176348
1706.44, 0.175986
1707.0, 0.175986
1707.56, 0.175806
1708.12, 0.175625
1708.69, 0.176047
1709.25, 0.176468
1709.81, 0.176589
1710.38, 0.176528
1710.94, 0.176528
1711.51, 0.176468
1712.07, 0.176709
1712.64, 0.176709
1713.2, 0.176468
1713.77, 0.176769
1714.34, 0.177071
1714.9, 0.177131
1715.47, 0.176769
1716.04, 0.176528
1716.61, 0.176528
1717.18, 0.176528
1717.74, 0.176769
1718.31, 0.176890
1718.88, 0.176769
1719.45, 0.176769
1720.02, 0.176950
1720.59, 0.176830
1721.17, 0.176528
1721.74, 0.176649
1722.31, 0.176709
1722.88, 0.176769
1723.45, 0.177010
1724.03, 0.176830
1724.6, 0.176890
1725.18, 0.176769
1725.75, 0.176348
1726.33, 0.176288
1726.9, 0.176589
1727.48, 0.177010
1728.05, 0.177071
1728.63, 0.177010
1729.2, 0.176890
1729.78, 0.177131
1730.36, 0.177191
1730.94, 0.177311
1731.51, 0.177191
1732.09, 0.177311
1732.67, 0.177311
1733.25, 0.177251
1733.83, 0.177010
1734.41, 0.177251
1734.99, 0.177372
1735.57, 0.177071
1736.15, 0.177010
1736.73, 0.177071
1737.32, 0.176950
1737.9, 0.177191
1738.48, 0.177552
1739.07, 0.177733
1739.65, 0.178155
1740.23, 0.177552
1740.82, 0.177131
1741.4, 0.177552
1741.99, 0.177372
1742.57, 0.177131
1743.16, 0.177191
1743.74, 0.177191
1744.33, 0.177010
1744.92, 0.177251
1745.51, 0.177372
1746.09, 0.177372
1746.68, 0.177311
1747.27, 0.177432
1747.86, 0.177492
1748.45, 0.177552
1749.04, 0.177733
1749.63, 0.177854
1750.22, 0.177974
1750.81, 0.177733
1751.4, 0.177191
1751.99, 0.177191
1752.59, 0.177432
1753.18, 0.177733
1753.77, 0.177733
1754.37, 0.177673
1754.96, 0.177793
1755.56, 0.177854
1756.15, 0.177492
1756.74, 0.177372
1757.34, 0.177793
1757.94, 0.177613
1758.53, 0.177613
1759.13, 0.177974
1759.73, 0.177974
1760.32, 0.177552
1760.92, 0.177372
1761.52, 0.177372
1762.12, 0.177552
1762.72, 0.177914
1763.32, 0.177793
1763.92, 0.177793
1764.52, 0.177793
1765.12, 0.177613
1765.72, 0.177733
1766.32, 0.177914
1766.92, 0.177854
1767.53, 0.177673
1768.13, 0.177432
1768.73, 0.177492
1769.34, 0.177613
1769.94, 0.177552
1770.55, 0.177613
1771.15, 0.177793
1771.76, 0.177854
1772.36, 0.177974
1772.97, 0.177974
1773.57, 0.177673
1774.18, 0.177793
1774.79, 0.177914
1775.4, 0.177854
1776.0, 0.177673
1776.61, 0.177673
1777.22, 0.177854
1777.83, 0.177854
1778.44, 0.177613
1779.05, 0.177613
1779.66, 0.177733
1780.27, 0.177793
1780.88, 0.177673
1781.5, 0.177854
1782.11, 0.178034
1782.72, 0.177854
1783.33, 0.177854
1783.95, 0.177793
1784.56, 0.177613
1785.18, 0.177552
1785.79, 0.177492
1786.41, 0.177613
1787.02, 0.177854
1787.64, 0.177733
1788.26, 0.177854
1788.87, 0.178094
1789.49, 0.177793
1790.11, 0.177613
1790.73, 0.177974
1791.35, 0.178034
1791.96, 0.177733
1792.58, 0.177733
1793.21, 0.177854
1793.83, 0.177673
1794.45, 0.177673
1795.07, 0.177854
1795.69, 0.177552
1796.31, 0.177372
1796.93, 0.177492
1797.56, 0.177673
1798.18, 0.177793
1798.8, 0.177793
1799.43, 0.177733
1800.05, 0.177854
1800.68, 0.177974
1801.3, 0.177914
1801.93, 0.177854
1802.56, 0.177673
1803.18, 0.177733
1803.81, 0.177733
1804.44, 0.177492
1805.07, 0.177492
1805.7, 0.177673
1806.33, 0.178034
1806.95, 0.177974
1807.58, 0.177673
1808.22, 0.177673
1808.85, 0.177733
1809.48, 0.177793
1810.11, 0.177793
1810.74, 0.177673
1811.38, 0.177552
1812.01, 0.177492
1812.64, 0.177492
1813.28, 0.177673
1813.91, 0.177914
1814.55, 0.177914
1815.18, 0.177733
1815.82, 0.177673
1816.45, 0.177673
1817.09, 0.177673
1817.73, 0.177854
1818.36, 0.177793
1819.0, 0.177492
1819.64, 0.177251
1820.28, 0.177432
1820.92, 0.177854
1821.56, 0.177613
1822.2, 0.177251
1822.84, 0.177191
1823.48, 0.177552
1824.12, 0.177854
1824.76, 0.177793
1825.41, 0.177673
1826.05, 0.177733
1826.69, 0.177733
1827.34, 0.177733
1827.98, 0.177673
1828.63, 0.177793
1829.27, 0.177733
1829.92, 0.177251
1830.56, 0.177432
1831.21, 0.177793
1831.86, 0.177854
1832.5, 0.177793
1833.15, 0.177552
1833.8, 0.177492
1834.45, 0.177793
1835.1, 0.178034
1835.75, 0.177854
1836.4, 0.177552
1837.05, 0.177974
1837.7, 0.178275
1838.35, 0.177733
1839.01, 0.177251
1839.66, 0.177372
1840.31, 0.177311
1840.96, 0.177372
1841.62, 0.177914
1842.27, 0.178034
1842.93, 0.177613
1843.58, 0.177492
1844.24, 0.177372
1844.9, 0.177311
1845.55, 0.177191
1846.21, 0.176950
1846.87, 0.177311
1847.53, 0.177372
1848.18, 0.177251
1848.84, 0.177251
1849.5, 0.177131
1850.16, 0.177010
1850.82, 0.177191
1851.48, 0.177251
1852.14, 0.177432
1852.81, 0.177251
1853.47, 0.177191
1854.13, 0.177432
1854.8, 0.177613
1855.46, 0.177733
1856.12, 0.177552
1856.79, 0.177372
1857.45, 0.177010
1858.12, 0.176830
1858.79, 0.177131
1859.45, 0.177251
1860.12, 0.177010
1860.79, 0.177010
1861.46, 0.177071
1862.12, 0.177071
1862.79, 0.177010
1863.46, 0.176709
1864.13, 0.176769
1864.8, 0.177131
1865.48, 0.177131
1866.15, 0.176950
1866.82, 0.176890
1867.49, 0.177131
1868.16, 0.177191
1868.84, 0.176950
1869.51, 0.176830
1870.19, 0.176950
1870.86, 0.177191
1871.54, 0.177071
1872.21, 0.176890
1872.89, 0.177071
1873.56, 0.177372
1874.24, 0.177251
1874.92, 0.177071
1875.6, 0.177071
1876.28, 0.177071
1876.96, 0.177010
1877.64, 0.176649
1878.32, 0.176589
1879.0, 0.176649
1879.68, 0.176709
1880.36, 0.176468
1881.04, 0.176468
1881.73, 0.176528
1882.41, 0.176408
1883.09, 0.176468
1883.78, 0.176769
1884.46, 0.176649
1885.15, 0.176408
1885.83, 0.176528
1886.52, 0.176468
1887.21, 0.176107
1887.89, 0.175926
1888.58, 0.175986
1889.27, 0.176047
1889.96, 0.176288
1890.65, 0.176227
1891.34, 0.176107
1892.03, 0.175806
1892.72, 0.175505
1893.41, 0.175625
1894.1, 0.175866
1894.79, 0.175986
1895.49, 0.175806
1896.18, 0.175685
1896.87, 0.175625
1897.57, 0.175505
1898.26, 0.175384
1898.96, 0.175444
1899.65, 0.175746
1900.35, 0.175444
1901.05, 0.175143
1901.74, 0.175143
1902.44, 0.175264
1903.14, 0.175264
1903.84, 0.175143
1904.54, 0.174902
1905.24, 0.174722
1905.94, 0.175023
1906.64, 0.175203
1907.34, 0.174842
1908.04, 0.174601
1908.75, 0.174661
1909.45, 0.174782
1910.15, 0.174782
1910.86, 0.174782
1911.56, 0.174541
1912.27, 0.174421
1912.97, 0.174601
1913.68, 0.174661
1914.39, 0.174601
1915.09, 0.174661
1915.8, 0.174722
1916.51, 0.174782
1917.22, 0.174782
1917.93, 0.174541
1918.64, 0.174300
1919.35, 0.174541
1920.06, 0.175023
1920.77, 0.174963
1921.48, 0.174661
1922.19, 0.174601
1922.91, 0.174661
1923.62, 0.174541
1924.33, 0.174661
1925.05, 0.174722
1925.76, 0.174661
1926.48, 0.174541
1927.19, 0.174481
1927.91, 0.174782
1928.63, 0.174842
1929.35, 0.174661
1930.07, 0.174421
1930.78, 0.174782
1931.5, 0.174902
1932.22, 0.174902
1932.94, 0.175023
1933.66, 0.175143
1934.39, 0.175083
1935.11, 0.174842
1935.83, 0.174842
1936.55, 0.174963
1937.28, 0.175023
1938.0, 0.175083
1938.73, 0.175264
1939.45, 0.175264
1940.18, 0.175023
1940.9, 0.174842
1941.63, 0.175023
1942.36, 0.174782
1943.09, 0.174541
1943.81, 0.174661
1944.54, 0.174963
1945.27, 0.174963
1946.0, 0.174842
1946.73, 0.175023
1947.47, 0.175023
1948.2, 0.174902
1948.93, 0.174782
1949.66, 0.174782
1950.4, 0.174722
1951.13, 0.174661
1951.86, 0.174661
1952.6, 0.174722
1953.34, 0.174842
1954.07, 0.175023
1954.81, 0.175083
1955.55, 0.174782
1956.29, 0.174842
1957.02, 0.175023
1957.76, 0.175203
1958.5, 0.175384
1959.24, 0.175203
1959.98, 0.174782
1960.72, 0.174842
1961.47, 0.174963
1962.21, 0.175083
1962.95, 0.174963
1963.7, 0.175083
1964.44, 0.175203
1965.18, 0.175023
1965.93, 0.174842
1966.67, 0.175023
1967.42, 0.175023
1968.17, 0.175023
1968.92, 0.175143
1969.66, 0.175203
1970.41, 0.175264
1971.16, 0.175143
1971.91, 0.175324
1972.66, 0.175384
1973.41, 0.175083
1974.16, 0.175083
1974.92, 0.175264
1975.67, 0.175203
1976.42, 0.175023
1977.18, 0.175083
1977.93, 0.174963
1978.69, 0.175083
1979.44, 0.175023
1980.2, 0.175023
1980.95, 0.175143
1981.71, 0.175264
1982.47, 0.175384
1983.23, 0.175324
1983.99, 0.175083
1984.74, 0.174842
1985.51, 0.175083
1986.27, 0.175203
1987.03, 0.175203
1987.79, 0.175264
1988.55, 0.175324
1989.32, 0.175264
1990.08, 0.175203
1990.84, 0.175264
1991.61, 0.175324
1992.37, 0.175324
1993.14, 0.175143
1993.9, 0.175083
1994.67, 0.175023
1995.44, 0.175083
1996.21, 0.175203
1996.98, 0.175264
1997.75, 0.175083
1998.52, 0.175083
1999.29, 0.175143
2000.06, 0.175264
2000.83, 0.175384
2001.6, 0.175384
2002.38, 0.175384
2003.15, 0.175324
2003.93, 0.175264
2004.7, 0.175505
2005.48, 0.175384
2006.25, 0.175203
2007.03, 0.175203
2007.81, 0.175324
2008.58, 0.175384
2009.36, 0.175384
2010.14, 0.175264
2010.92, 0.175143
2011.7, 0.175324
2012.48, 0.175625
2013.26, 0.175926
2014.05, 0.175746
2014.83, 0.175444
2015.61, 0.175505
2016.4, 0.175625
2017.18, 0.175625
2017.97, 0.175565
2018.75, 0.175505
2019.54, 0.175324
2020.32, 0.175384
2021.11, 0.175384
2021.9, 0.175505
2022.69, 0.175746
2023.48, 0.175806
2024.27, 0.175746
2025.06, 0.175565
2025.85, 0.175625
2026.64, 0.175806
2027.44, 0.175806
2028.23, 0.175866
2029.02, 0.175866
2029.82, 0.175926
2030.61, 0.176047
2031.41, 0.176107
2032.2, 0.176107
2033.0, 0.176107
2033.8, 0.175866
2034.6, 0.175866
2035.4, 0.176047
2036.2, 0.175986
2037.0, 0.175746
2037.8, 0.175806
2038.6, 0.176167
2039.4, 0.176107
2040.2, 0.175926
2041.01, 0.175926
2041.81, 0.175986
2042.61, 0.176167
2043.42, 0.176348
2044.22, 0.176288
2045.03, 0.176107
2045.84, 0.176107
2046.65, 0.176047
2047.46, 0.176047
2048.26, 0.176047
2049.07, 0.176227
2049.88, 0.176227
2050.69, 0.176348
2051.51, 0.176288
2052.32, 0.176047
2053.13, 0.176167
2053.94, 0.176468
2054.76, 0.176589
2055.57, 0.176769
2056.39, 0.176769
2057.2, 0.176709
2058.02, 0.176589
2058.84, 0.176528
2059.66, 0.176468
2060.48, 0.176348
2061.29, 0.176408
2062.11, 0.176769
2062.94, 0.176890
2063.76, 0.176589
2064.58, 0.176589
2065.4, 0.176830
2066.22, 0.176709
2067.05, 0.176649
2067.87, 0.176709
2068.7, 0.176769
2069.52, 0.176830
2070.35, 0.176950
2071.18, 0.176830
2072.0, 0.176528
2072.83, 0.176468
2073.66, 0.176769
2074.49, 0.176830
2075.32, 0.176528
2076.15, 0.176227
2076.98, 0.176468
2077.82, 0.176769
2078.65, 0.176950
2079.48, 0.176950
2080.32, 0.176950
2081.15, 0.176830
2081.99, 0.176830
2082.83, 0.176890
2083.66, 0.176649
2084.5, 0.176769
2085.34, 0.176830
2086.18, 0.176649
2087.02, 0.176709
2087.86, 0.176769
2088.7, 0.176950
2089.54, 0.177131
2090.39, 0.177191
2091.23, 0.177071
2092.07, 0.177010
2092.92, 0.176830
2093.76, 0.176830
2094.61, 0.176890
2095.45, 0.177071
2096.3, 0.177311
2097.15, 0.177131
2098.0, 0.176830
2098.85, 0.176769
2099.7, 0.177071
2100.55, 0.177492
2101.4, 0.177432
2102.25, 0.177131
2103.1, 0.177191
2103.96, 0.177492
2104.81, 0.177552
2105.67, 0.177311
2106.52, 0.177131
2107.38, 0.177131
2108.24, 0.177251
2109.09, 0.177432
2109.95, 0.177613
2110.81, 0.177432
2111.67, 0.177131
2112.53, 0.177071
2113.39, 0.177432
2114.25, 0.177372
2115.12, 0.177372
2115.98, 0.177552
2116.84, 0.177372
2117.71, 0.177492
2118.58, 0.177613
2119.44, 0.177552
2120.31, 0.177432
2121.18, 0.177492
2122.04, 0.177673
2122.91, 0.177793
2123.78, 0.177733
2124.65, 0.177854
2125.52, 0.177914
2126.4, 0.177733
2127.27, 0.177552
2128.14, 0.177613
2129.02, 0.177793
2129.89, 0.178034
2130.77, 0.178215
2131.64, 0.178335
2132.52, 0.178396
2133.4, 0.178155
2134.27, 0.177733
2135.15, 0.177793
2136.03, 0.177793
2136.91, 0.177854
2137.79, 0.178094
2138.68, 0.178034
2139.56, 0.177974
2140.44, 0.178034
2141.33, 0.177974
2142.21, 0.178215
2143.1, 0.178275
2143.99, 0.178034
2144.87, 0.177974
2145.76, 0.178094
2146.65, 0.178215
2147.54, 0.178516
2148.43, 0.178335
2149.32, 0.178275
2150.21, 0.178516
2151.1, 0.178757
2151.99, 0.178697
2152.89, 0.178636
2153.78, 0.178697
2154.68, 0.178757
2155.57, 0.178636
2156.47, 0.178516
2157.37, 0.178757
2158.27, 0.178817
2159.16, 0.178697
2160.06, 0.178877
2160.96, 0.179179
2161.86, 0.179179
2162.77, 0.178938
2163.67, 0.178998
2164.57, 0.178938
2165.48, 0.178877
2166.38, 0.178817
2167.29, 0.178877
2168.2, 0.178877
2169.1, 0.179118
2170.01, 0.179239
2170.92, 0.179239
2171.83, 0.179179
2172.74, 0.179118
2173.65, 0.178938
2174.56, 0.178817
2175.47, 0.179058
2176.39, 0.179299
2177.3, 0.179239
2178.22, 0.178998
2179.13, 0.178877
2180.05, 0.178998
2180.96, 0.178998
2181.88, 0.178938
2182.8, 0.178998
2183.72, 0.179179
2184.64, 0.178998
2185.56, 0.178877
2186.48, 0.178757
2187.41, 0.178697
2188.33, 0.178757
2189.25, 0.178877
2190.18, 0.178998
2191.1, 0.179058
2192.03, 0.178938
2192.96, 0.178877
2193.89, 0.178938
2194.82, 0.178998
2195.74, 0.178998
2196.68, 0.178938
2197.61, 0.178938
2198.54, 0.178938
2199.47, 0.178817
2200.4, 0.178817
2201.34, 0.178938
2202.28, 0.179058
2203.21, 0.178998
2204.15, 0.178998
2205.08, 0.178998
2206.02, 0.179058
2206.96, 0.179239
2207.9, 0.179179
2208.84, 0.179239
2209.78, 0.179239
2210.73, 0.179359
2211.67, 0.179540
2212.61, 0.179419
2213.56, 0.179299
2214.5, 0.179480
2215.45, 0.179660
2216.4, 0.179480
2217.35, 0.179540
2218.3, 0.179660
2219.24, 0.179721
2220.2, 0.179781
2221.15, 0.179841
2222.1, 0.179721
2223.05, 0.179781
2224.0, 0.179841
2224.96, 0.180082
2225.91, 0.180504
2226.87, 0.180443
2227.83, 0.180323
2228.79, 0.180323
2229.74, 0.180323
2230.7, 0.180443
2231.66, 0.180263
2232.63, 0.180202
2233.59, 0.180323
2234.55, 0.180504
2235.51, 0.180564
2236.48, 0.180624
2237.44, 0.180504
2238.41, 0.180504
2239.38, 0.180744
2240.34, 0.180985
2241.31, 0.180805
2242.28, 0.180443
2243.25, 0.180443
2244.22, 0.180624
2245.19, 0.180865
2246.17, 0.180985
2247.14, 0.180925
2248.12, 0.180865
2249.09, 0.180925
2250.07, 0.180985
2251.04, 0.180985
2252.02, 0.181046
2253.0, 0.181046
2253.98, 0.181046
2254.96, 0.180985
2255.94, 0.181226
2256.92, 0.181226
2257.91, 0.181226
2258.89, 0.181106
2259.88, 0.180925
2260.86, 0.181046
2261.85, 0.181226
2262.83, 0.181527
2263.82, 0.181588
2264.81, 0.181648
2265.8, 0.181768
2266.79, 0.181588
2267.78, 0.181467
2268.78, 0.181648
2269.77, 0.181949
2270.76, 0.182130
2271.76, 0.182069
2272.75, 0.182130
2273.75, 0.182310
2274.75, 0.182250
2275.75, 0.182250
2276.75, 0.182190
2277.75, 0.182130
2278.75, 0.182250
2279.75, 0.182250
2280.75, 0.182190
2281.76, 0.182130
2282.76, 0.182250
2283.77, 0.182371
2284.77, 0.182551
2285.78, 0.182491
2286.79, 0.182310
2287.8, 0.182190
2288.81, 0.182250
2289.82, 0.182672
2290.83, 0.182732
2291.84, 0.182491
2292.86, 0.182431
2293.87, 0.182371
2294.89, 0.182491
2295.91, 0.182491
2296.92, 0.182371
2297.94, 0.182371
2298.96, 0.182431
2299.98, 0.182551
2301.0, 0.182612
2302.02, 0.182491
2303.04, 0.182431
2304.07, 0.182431
2305.09, 0.182551
2306.12, 0.182491
2307.15, 0.182551
2308.17, 0.182431
2309.2, 0.182371
2310.23, 0.182551
2311.26, 0.182551
2312.29, 0.182491
2313.32, 0.182431
2314.35, 0.182310
2315.39, 0.182371
2316.42, 0.182612
2317.46, 0.182612
2318.5, 0.182491
2319.53, 0.182491
2320.57, 0.182612
2321.61, 0.182612
2322.65, 0.182672
2323.69, 0.182491
2324.73, 0.182431
2325.78, 0.182491
2326.82, 0.182612
2327.86, 0.182672
2328.91, 0.182672
2329.96, 0.182732
2331.01, 0.182792
2332.05, 0.182732
2333.1, 0.182792
2334.15, 0.182852
2335.21, 0.183093
2336.26, 0.183274
2337.31, 0.183154
2338.36, 0.183033
2339.42, 0.183274
2340.48, 0.183395
2341.53, 0.183515
2342.59, 0.183515
2343.65, 0.183334
2344.71, 0.183334
2345.77, 0.183617
2346.83, 0.184012
2347.9, 0.184576
2348.96, 0.184858
2350.02, 0.184745
2351.09, 0.184576
2352.16, 0.184802
2353.23, 0.184802
2354.29, 0.184576
2355.36, 0.184576
2356.43, 0.184802
2357.51, 0.184689
2358.58, 0.185141
2359.65, 0.185592
2360.73, 0.185536
2361.8, 0.185705
2362.88, 0.186044
2363.96, 0.186044
2365.03, 0.185931
2366.11, 0.185818
2367.19, 0.185931
2368.27, 0.185931
2369.36, 0.186269
2370.44, 0.186665
2371.53, 0.186721
2372.61, 0.186777
2373.7, 0.186777
2374.78, 0.186834
2375.87, 0.187229
2376.96, 0.187342
2378.05, 0.187342
2379.14, 0.187398
2380.24, 0.187511
2381.33, 0.187455
2382.42, 0.187511
2383.52, 0.187737
2384.61, 0.187850
2385.71, 0.188076
2386.81, 0.188019
2387.91, 0.187906
2389.01, 0.188301
2390.11, 0.188245
2391.22, 0.188414
2392.32, 0.188640
2393.42, 0.189035
2394.53, 0.189205
2395.64, 0.189148
2396.74, 0.189261
2397.85, 0.189317
2398.96, 0.189317
2400.07, 0.189430
2401.18, 0.189543
2402.3, 0.189713
2403.41, 0.189487
2404.52, 0.189487
2405.64, 0.189825
2406.76, 0.190164
2407.88, 0.190221
2408.99, 0.190221
2410.11, 0.190503
2411.23, 0.190729
2412.36, 0.190898
2413.48, 0.191124
2414.6, 0.191237
2415.73, 0.191519
2416.85, 0.191519
2417.98, 0.191350
2419.11, 0.191180
2420.24, 0.191180
2421.37, 0.191462
2422.5, 0.191914
2423.64, 0.192083
2424.77, 0.192196
2425.9, 0.192196
2427.04, 0.192309
2428.18, 0.192366
2429.31, 0.192478
2430.45, 0.192591
2431.59, 0.192704
2432.73, 0.192648
2433.88, 0.192591
2435.02, 0.192704
2436.16, 0.193099
2437.31, 0.193269
2438.45, 0.193325
2439.6, 0.193494
2440.75, 0.193494
2441.9, 0.193720
2443.05, 0.194059
2444.2, 0.194172
2445.35, 0.194172
2446.51, 0.194341
2447.67, 0.194567
2448.82, 0.194567
2449.98, 0.194454
2451.14, 0.194623
2452.3, 0.194906
2453.46, 0.194736
2454.62, 0.194623
2455.78, 0.194793
2456.94, 0.195244
2458.11, 0.195696
2459.28, 0.196034
2460.44, 0.195978
2461.61, 0.195865
2462.78, 0.195978
2463.95, 0.196147
2465.12, 0.195922
2466.3, 0.195978
2467.47, 0.196204
2468.65, 0.196486
2469.82, 0.196373
2471.0, 0.196655
2472.18, 0.196825
2473.36, 0.196938
2474.54, 0.197163
2475.72, 0.197446
2476.9, 0.197615
2478.08, 0.197728
2479.27, 0.197502
2480.46, 0.197671
2481.64, 0.197897
2482.83, 0.198066
2484.02, 0.198349
2485.21, 0.198292
2486.4, 0.198236
2487.6, 0.198349
2488.79, 0.198631
2489.99, 0.198800
2491.18, 0.198857
2492.38, 0.199083
2493.58, 0.199421
2494.78, 0.199760
2495.98, 0.199816
2497.18, 0.199591
2498.39, 0.199534
2499.59, 0.199703
2500.8, 0.199703
2502.01, 0.199986
2503.21, 0.200211
2504.42, 0.200211
2505.63, 0.200211
2506.84, 0.200494
2508.06, 0.200832
2509.27, 0.201002
2510.49, 0.201002
2511.7, 0.201284
2512.92, 0.201397
2514.14, 0.201453
2515.36, 0.201397
2516.58, 0.201453
2517.8, 0.201510
2519.03, 0.201566
2520.25, 0.201792
2521.48, 0.201905
2522.7, 0.201961
2523.93, 0.202243
2525.16, 0.202582
2526.39, 0.202526
2527.62, 0.202356
2528.86, 0.202582
2530.09, 0.202808
2531.33, 0.203034
2532.56, 0.203203
2533.8, 0.203372
2535.04, 0.203598
2536.28, 0.204050
2537.52, 0.203824
2538.76, 0.203655
2540.01, 0.203824
2541.25, 0.204275
2542.5, 0.205066
2543.75, 0.205235
2544.99, 0.204727
2546.24, 0.204896
2547.49, 0.205574
2548.75, 0.205348
2550.0, 0.205461
2551.26, 0.206082
2552.51, 0.206251
2553.77, 0.205912
2555.03, 0.205291
2556.29, 0.205348
2557.55, 0.205461
2558.81, 0.206195
2560.08, 0.207944
2561.34, 0.209243
2562.61, 0.209356
2563.88, 0.209299
2565.14, 0.208170
2566.41, 0.206985
2567.68, 0.207324
2568.96, 0.208904
2570.23, 0.208791
2571.51, 0.208001
2572.78, 0.209751
2574.06, 0.209638
2575.34, 0.208735
2576.62, 0.209581
2577.9, 0.209130
2579.18, 0.208452
2580.47, 0.209525
2581.75, 0.210033
2583.04, 0.211388
2584.32, 0.211670
2585.61, 0.210202
2586.9, 0.211049
2588.2, 0.210992
2589.49, 0.210428
2590.78, 0.209807
2592.08, 0.210259
2593.37, 0.214492
2594.67, 0.219233
2595.97, 0.215395
2597.27, 0.211162
2598.57, 0.209920
2599.88, 0.210315
2601.18, 0.211049
2602.49, 0.211896
2603.79, 0.213194
2605.1, 0.215000
2606.41, 0.214323
2607.72, 0.212855
2609.03, 0.212573
2610.35, 0.211839
2611.66, 0.211275
2612.98, 0.211670
2614.3, 0.211444
2615.62, 0.213476
2616.94, 0.215282
2618.26, 0.213589
2619.58, 0.214605
2620.91, 0.214774
2622.23, 0.212008
2623.56, 0.211388
2624.89, 0.212347
2626.22, 0.214661
2627.55, 0.213645
2628.88, 0.213984
2630.21, 0.216524
2631.55, 0.214549
2632.89, 0.213137
2634.22, 0.213363
2635.56, 0.212291
2636.9, 0.212008
2638.25, 0.211896
2639.59, 0.212121
2640.93, 0.212291
2642.28, 0.212573
2643.63, 0.212686
2644.98, 0.213589
2646.33, 0.213420
2647.68, 0.212573
2649.03, 0.212121
2650.39, 0.212573
2651.74, 0.213533
2653.1, 0.213250
2654.46, 0.212855
2655.82, 0.213137
2657.18, 0.212065
2658.54, 0.212855
2659.9, 0.213363
2661.27, 0.212912
2662.64, 0.212799
2664.01, 0.215282
2665.38, 0.217709
2666.74, 0.217145
2668.12, 0.214492
2669.49, 0.216468
2670.87, 0.216693
2672.24, 0.211670
2673.62, 0.210372
2675.0, 0.211613
2676.38, 0.212912
2677.76, 0.212291
2679.15, 0.211218
2680.54, 0.208340
2681.92, 0.206816
2683.31, 0.206703
2684.7, 0.205799
2686.09, 0.205122
2687.48, 0.204163
2688.88, 0.202808
2690.27, 0.201453
2691.67, 0.201115
2693.07, 0.202356
2694.47, 0.201961
2695.87, 0.199365
2697.27, 0.196542
2698.67, 0.194510
2700.08, 0.193833
2701.49, 0.192535
2702.9, 0.189825
2704.31, 0.187342
2705.72, 0.185141
2707.13, 0.182883
2708.54, 0.181189
2709.96, 0.179327
2711.38, 0.174980
2712.8, 0.168489
2714.22, 0.163353
2715.64, 0.157539
2717.06, 0.150144
2718.49, 0.143597
2719.91, 0.141508
2721.34, 0.138912
2722.77, 0.136710
2724.2, 0.136259
2725.63, 0.133324
2727.07, 0.127792
2728.5, 0.121470
2729.94, 0.116277
2731.38, 0.114527
2732.82, 0.115431
2734.26, 0.116616
2735.7, 0.116052
2737.15, 0.115035
2738.59, 0.115374
2740.04, 0.114584
2741.49, 0.110633
2742.94, 0.106230
2744.39, 0.104762
2745.84, 0.105440
2747.3, 0.105948
2748.76, 0.105553
2750.21, 0.104932
2751.67, 0.104480
2753.14, 0.104367
2754.6, 0.105214
2756.06, 0.104650
2757.53, 0.102222
2759.0, 0.100981
2760.46, 0.101319
2761.94, 0.102561
2763.41, 0.103069
2764.88, 0.102674
2766.36, 0.102730
2767.83, 0.103013
2769.31, 0.103069
2770.79, 0.103408
2772.27, 0.103408
2773.76, 0.103238
2775.24, 0.103351
2776.73, 0.103577
2778.22, 0.103690
2779.71, 0.104085
2781.2, 0.104480
2782.69, 0.104480
2784.18, 0.104593
2785.68, 0.105214
2787.18, 0.105948
2788.68, 0.105778
2790.18, 0.105214
2791.68, 0.104988
2793.19, 0.105327
2794.69, 0.105496
2796.2, 0.105496
2797.71, 0.105496
2799.22, 0.105553
2800.73, 0.105778
2802.24, 0.106286
2803.76, 0.106343
2805.28, 0.105948
2806.8, 0.105778
2808.32, 0.105778
2809.84, 0.105722
2811.36, 0.105609
2812.89, 0.105722
2814.42, 0.106061
2815.94, 0.105891
2817.48, 0.105722
2819.01, 0.105835
2820.54, 0.105835
2822.08, 0.105609
2823.61, 0.105609
2825.15, 0.105722
2826.69, 0.105778
2828.23, 0.105948
2829.78, 0.105778
2831.32, 0.105778
2832.87, 0.106004
2834.42, 0.106004
2835.97, 0.106004
2837.52, 0.106061
2839.08, 0.106117
2840.63, 0.106117
2842.19, 0.106061
2843.75, 0.105948
2845.31, 0.106061
2846.87, 0.105948
2848.44, 0.105891
2850.0, 0.105891
2851.57, 0.105778
2853.14, 0.105722
2854.71, 0.105778
2856.28, 0.105778
2857.86, 0.105778
2859.43, 0.105609
2861.01, 0.105383
2862.59, 0.105270
2864.17, 0.105158
2865.76, 0.105101
2867.34, 0.105101
2868.93, 0.105158
2870.52, 0.105214
2872.11, 0.105270
2873.7, 0.105270
2875.29, 0.105270
2876.89, 0.105383
2878.49, 0.105496
2880.08, 0.105496
2881.69, 0.105553
2883.29, 0.105722
2884.89, 0.105609
2886.5, 0.105440
2888.11, 0.105553
2889.72, 0.105553
2891.33, 0.105609
2892.94, 0.105609
2894.56, 0.105496
2896.17, 0.105609
2897.79, 0.105722
2899.42, 0.105722
2901.04, 0.105778
2902.66, 0.105778
2904.29, 0.105778
2905.92, 0.105891
2907.55, 0.105835
2909.18, 0.105553
2910.81, 0.105496
2912.45, 0.105609
2914.08, 0.105778
2915.72, 0.105948
2917.36, 0.105891
2919.01, 0.105948
2920.65, 0.105948
2922.3, 0.106004
2923.94, 0.106117
2925.59, 0.106230
2927.25, 0.106286
2928.9, 0.106343
2930.56, 0.106343
2932.21, 0.106286
2933.87, 0.106399
2935.53, 0.106738
2937.2, 0.106738
2938.86, 0.106851
2940.53, 0.107246
2942.2, 0.107359
2943.87, 0.107472
2945.54, 0.107585
2947.22, 0.107867
2948.89, 0.108149
2950.57, 0.108093
2952.25, 0.108319
2953.93, 0.108714
2955.62, 0.108939
2957.3, 0.108939
2958.99, 0.109109
2960.68, 0.109391
2962.37, 0.109560
2964.07, 0.109843
2965.76, 0.110351
2967.46, 0.110746
2969.16, 0.110971
2970.86, 0.111141
2972.56, 0.111423
2974.27, 0.111705
2975.98, 0.111931
2977.69, 0.112383
2979.4, 0.112778
2981.11, 0.113003
2982.83, 0.113060
2984.54, 0.113342
2986.26, 0.113850
2987.98, 0.114189
2989.71, 0.114471
2991.43, 0.114979
2993.16, 0.115318
2994.89, 0.115600
2996.62, 0.116052
2998.35, 0.116447
3000.09, 0.116729
3001.83, 0.117237
3003.57, 0.117632
3005.31, 0.117971
3007.05, 0.118422
3008.79, 0.118930
3010.54, 0.119212
3012.29, 0.119551
3014.04, 0.120172
3015.8, 0.120624
3017.55, 0.120962
3019.31, 0.121244
3021.07, 0.121583
3022.83, 0.122148
3024.59, 0.122486
3026.36, 0.122881
3028.13, 0.123333
3029.9, 0.123502
3031.67, 0.123954
3033.44, 0.124518
3035.22, 0.124913
3037.0, 0.125083
3038.78, 0.125309
3040.56, 0.125817
3042.34, 0.126099
3044.13, 0.126381
3045.92, 0.126776
3047.71, 0.127058
3049.5, 0.127171
3051.3, 0.127510
3053.09, 0.127905
3054.89, 0.128244
3056.69, 0.128469
3058.5, 0.128808
3060.3, 0.129147
3062.11, 0.129429
3063.92, 0.129485
3065.73, 0.129711
3067.55, 0.130106
3069.36, 0.130276
3071.18, 0.130501
3073.0, 0.130897
3074.82, 0.131292
3076.65, 0.131630
3078.48, 0.131800
3080.31, 0.132026
3082.14, 0.132364
3083.97, 0.132590
3085.8, 0.132929
3087.64, 0.133324
3089.48, 0.133719
3091.33, 0.134001
3093.17, 0.134340
3095.02, 0.134566
3096.87, 0.134904
3098.72, 0.135412
3100.57, 0.135694
3102.43, 0.135977
3104.28, 0.136541
3106.14, 0.136936
3108.01, 0.137218
3109.87, 0.137444
3111.74, 0.137783
3113.61, 0.138234
3115.48, 0.138630
3117.35, 0.139025
3119.23, 0.139476
3121.1, 0.139984
3122.98, 0.140492
3124.87, 0.140775
3126.75, 0.141283
3128.64, 0.141847
3130.53, 0.142242
3132.42, 0.142694
3134.31, 0.143089
3136.21, 0.143540
3138.11, 0.144105
3140.01, 0.144613
3141.91, 0.145121
3143.82, 0.145572
3145.73, 0.145855
3147.64, 0.146306
3149.55, 0.146927
3151.46, 0.147379
3153.38, 0.148000
3155.3, 0.148508
3157.22, 0.148903
3159.14, 0.149354
3161.07, 0.149693
3163.0, 0.150144
3164.93, 0.150878
3166.86, 0.151443
3168.8, 0.152007
3170.74, 0.152346
3172.68, 0.152854
3174.62, 0.153305
3176.56, 0.153813
3178.51, 0.154265
3180.46, 0.154717
3182.42, 0.155225
3184.37, 0.155620
3186.33, 0.156184
3188.29, 0.156805
3190.25, 0.157426
3192.21, 0.157765
3194.18, 0.158160
3196.15, 0.158668
3198.12, 0.159345
3200.09, 0.159797
3202.07, 0.160248
3204.05, 0.160756
3206.03, 0.161208
3208.02, 0.161603
3210.0, 0.162054
3211.99, 0.162675
3213.98, 0.163183
3215.98, 0.163804
3217.97, 0.164312
3219.97, 0.164651
3221.97, 0.165272
3223.98, 0.165780
3225.98, 0.166175
3227.99, 0.166626
3230.0, 0.167078
3232.02, 0.167642
3234.03, 0.168150
3236.05, 0.168489
3238.07, 0.168771
3240.1, 0.169223
3242.12, 0.169731
3244.15, 0.170183
3246.18, 0.170521
3248.22, 0.170860
3250.25, 0.171311
3252.29, 0.171763
3254.33, 0.172102
3256.38, 0.172384
3258.43, 0.172723
3260.47, 0.173287
3262.53, 0.173682
3264.58, 0.173908
3266.64, 0.174303
3268.7, 0.174698
3270.76, 0.175037
3272.82, 0.175432
3274.89, 0.175714
3276.96, 0.176053
3279.04, 0.176392
3281.11, 0.176617
3283.19, 0.176900
3285.27, 0.177351
3287.35, 0.177690
3289.44, 0.178028
3291.53, 0.178367
3293.62, 0.178819
3295.71, 0.179044
3297.81, 0.179214
3299.91, 0.179496
3302.01, 0.179948
3304.11, 0.180343
3306.22, 0.180512
3308.33, 0.180681
3310.44, 0.181020
3312.56, 0.181246
3314.68, 0.181528
3316.8, 0.181810
3318.92, 0.182036
3321.05, 0.182262
3323.18, 0.182657
3325.31, 0.182996
3327.44, 0.183334
3329.58, 0.183617
3331.72, 0.183842
3333.86, 0.183899
3336.01, 0.184068
3338.16, 0.184350
3340.31, 0.184802
3342.46, 0.185028
3344.61, 0.185141
3346.77, 0.185366
3348.94, 0.185479
3351.1, 0.185705
3353.27, 0.186100
3355.44, 0.186269
3357.61, 0.186439
3359.79, 0.186552
3361.97, 0.186721
3364.15, 0.186890
3366.33, 0.187003
3368.52, 0.187285
3370.71, 0.187568
3372.9, 0.187793
3375.1, 0.188019
3377.3, 0.188301
3379.5, 0.188527
3381.71, 0.188697
3383.91, 0.188753
3386.12, 0.188979
3388.34, 0.189261
3390.55, 0.189600
3392.77, 0.189995
3394.99, 0.190277
3397.22, 0.190446
3399.45, 0.190616
3401.68, 0.190842
3403.91, 0.190898
3406.15, 0.190954
3408.39, 0.191011
3410.63, 0.191293
3412.87, 0.191575
3415.12, 0.191858
3417.37, 0.192083
3419.63, 0.192366
3421.88, 0.192591
3424.14, 0.192986
3426.41, 0.193325
3428.67, 0.193664
3430.94, 0.193946
3433.21, 0.194059
3435.49, 0.194228
3437.77, 0.194398
3440.05, 0.194623
3442.33, 0.194849
3444.62, 0.195188
3446.91, 0.195583
3449.2, 0.195752
3451.5, 0.195978
3453.8, 0.196260
3456.1, 0.196373
3458.41, 0.196373
3460.72, 0.196599
3463.03, 0.196938
3465.34, 0.197163
3467.66, 0.197220
3469.98, 0.197389
3472.31, 0.197558
3474.63, 0.197671
3476.96, 0.197784
3479.3, 0.198010
3481.64, 0.198236
3483.97, 0.198292
3486.32, 0.198292
3488.66, 0.198349
3491.01, 0.198405
3493.36, 0.198462
3495.72, 0.198631
3498.08, 0.198857
3500.44, 0.199026
3502.81, 0.199252
3505.18, 0.199478
3507.55, 0.199647
3509.92, 0.199703
3512.3, 0.199816
3514.68, 0.200099
3517.06, 0.200381
3519.45, 0.200663
3521.84, 0.200832
3524.24, 0.200945
3526.64, 0.201115
3529.04, 0.201284
3531.44, 0.201510
3533.85, 0.201735
3536.26, 0.201735
3538.67, 0.201792
3541.09, 0.201848
3543.51, 0.202131
3545.93, 0.202413
3548.36, 0.202526
3550.79, 0.202582
3553.22, 0.202639
3555.66, 0.202639
3558.1, 0.202751
3560.54, 0.202921
3562.99, 0.203034
3565.44, 0.203147
3567.9, 0.203147
3570.35, 0.203259
3572.81, 0.203316
3575.28, 0.203429
3577.75, 0.203429
3580.22, 0.203542
3582.69, 0.203655
3585.17, 0.203655
3587.65, 0.203711
3590.14, 0.204050
3592.62, 0.204219
3595.11, 0.204275
3597.61, 0.204106
3600.11, 0.204163
3602.61, 0.204219
3605.11, 0.204275
3607.62, 0.204332
3610.14, 0.204501
3612.65, 0.204501
3615.17, 0.204501
3617.69, 0.204614
3620.22, 0.204614
3622.75, 0.204671
3625.28, 0.204783
3627.82, 0.204896
3630.36, 0.204896
3632.9, 0.204896
3635.45, 0.204953
3638.0, 0.205066
3640.56, 0.205179
3643.12, 0.205122
3645.68, 0.205235
3648.24, 0.205291
3650.81, 0.205291
3653.39, 0.205291
3655.96, 0.205348
3658.54, 0.205348
3661.13, 0.205348
3663.71, 0.205517
3666.3, 0.205574
3668.9, 0.205461
3671.5, 0.205517
3674.1, 0.205461
3676.7, 0.205517
3679.31, 0.205461
3681.93, 0.205517
3684.54, 0.205517
3687.17, 0.205574
3689.79, 0.205574
3692.42, 0.205574
3695.05, 0.205574
3697.69, 0.205630
3700.32, 0.205630
3702.97, 0.205687
3705.61, 0.205743
3708.27, 0.205743
3710.92, 0.205799
3713.58, 0.205856
3716.24, 0.205799
3718.91, 0.205743
3721.58, 0.205799
3724.25, 0.205799
3726.93, 0.205799
3729.61, 0.205912
3732.29, 0.206025
3734.98, 0.206195
3737.67, 0.206195
3740.37, 0.206082
3743.07, 0.206025
3745.78, 0.206195
3748.49, 0.206251
3751.2, 0.206251
3753.91, 0.206308
3756.63, 0.206364
3759.36, 0.206251
3762.09, 0.206251
3764.82, 0.206420
3767.55, 0.206477
3770.29, 0.206477
3773.04, 0.206533
3775.78, 0.206420
3778.54, 0.206364
3781.29, 0.206477
3784.05, 0.206477
3786.82, 0.206420
3789.59, 0.206533
3792.36, 0.206590
3795.13, 0.206477
3797.92, 0.206533
3800.7, 0.206533
3803.49, 0.206420
3806.28, 0.206420
3809.08, 0.206533
3811.88, 0.206590
3814.68, 0.206590
3817.49, 0.206533
3820.31, 0.206364
3823.12, 0.206308
3825.94, 0.206308
3828.77, 0.206308
3831.6, 0.206195
3834.43, 0.206195
3837.27, 0.206195
3840.11, 0.206138
3842.96, 0.206082
3845.81, 0.206251
3848.67, 0.206195
3851.53, 0.206025
3854.39, 0.205912
3857.26, 0.205856
3860.13, 0.205799
3863.01, 0.205856
3865.89, 0.205799
3868.77, 0.205743
3871.66, 0.205687
3874.55, 0.205743
3877.45, 0.205743
3880.35, 0.205743
3883.26, 0.205630
3886.17, 0.205630
3889.09, 0.205630
3892.01, 0.205687
3894.93, 0.205574
3897.86, 0.205517
3900.79, 0.205517
3903.73, 0.205574
3906.67, 0.205517
3909.62, 0.205404
3912.57, 0.205235
3915.52, 0.205122
3918.48, 0.205122
3921.45, 0.205122
3924.42, 0.205009
3927.39, 0.204896
3930.37, 0.204840
3933.35, 0.204727
3936.34, 0.204671
3939.33, 0.204614
3942.32, 0.204445
3945.32, 0.204388
3948.33, 0.204275
3951.34, 0.203993
3954.35, 0.203937
3957.37, 0.203937
3960.39, 0.203711
3963.42, 0.203542
3966.45, 0.203429
3969.49, 0.203485
3972.53, 0.203485
3975.58, 0.203429
3978.63, 0.203372
3981.68, 0.203316
3984.75, 0.203203
3987.81, 0.203090
3990.88, 0.203034
3993.95, 0.203034
3997.03, 0.202977
4000.12, 0.202864
4003.21, 0.202808
4006.3, 0.202921
4009.4, 0.202864
4012.5, 0.202751
4015.61, 0.202695
4018.72, 0.202695
4021.84, 0.202639
4024.96, 0.202582
4028.09, 0.202413
4031.22, 0.202413
4034.36, 0.202356
4037.5, 0.202300
4040.65, 0.202131
4043.8, 0.202074
4046.96, 0.202018
4050.12, 0.202074
4053.29, 0.201961
4056.46, 0.201961
4059.64, 0.201905
4062.82, 0.201792
4066.0, 0.201679
4069.19, 0.201623
4072.39, 0.201623
4075.59, 0.201510
4078.8, 0.201284
4082.01, 0.201115
4085.23, 0.201058
4088.45, 0.201002
4091.68, 0.200889
4094.91, 0.200719
4098.15, 0.200550
4101.39, 0.200381
4104.63, 0.200324
4107.89, 0.200155
4111.14, 0.199929
4114.41, 0.199760
4117.67, 0.199647
4120.95, 0.199703
4124.23, 0.199647
4127.51, 0.199534
4130.8, 0.199365
4134.09, 0.199252
4137.39, 0.199083
4140.7, 0.198970
4144.01, 0.198744
4147.32, 0.198575
4150.64, 0.198462
4153.97, 0.198236
4157.3, 0.198066
4160.64, 0.197897
4163.98, 0.197671
4167.33, 0.197615
4170.68, 0.197502
4174.04, 0.197276
4177.4, 0.197107
4180.77, 0.196881
4184.14, 0.196599
4187.52, 0.196373
4190.91, 0.196147
4194.3, 0.196034
4197.69, 0.195865
4201.1, 0.195639
4204.5, 0.195470
4207.92, 0.195301
4211.34, 0.195188
4214.76, 0.195075
4218.19, 0.194962
4221.62, 0.194962
4225.06, 0.194906
4228.51, 0.194680
4231.96, 0.194398
4235.42, 0.194115
4238.88, 0.193833
4242.35, 0.193664
4245.83, 0.193212
4249.31, 0.192648
4252.79, 0.192027
4256.28, 0.191688
4259.78, 0.191519
4263.29, 0.191462
4266.79, 0.191124
4270.31, 0.190842
4273.83, 0.190559
4277.35, 0.190277
4280.89, 0.189995
4284.42, 0.189543
4287.97, 0.189092
4291.52, 0.188640
4295.07, 0.188245
4298.63, 0.187906
4302.2, 0.187455
4305.78, 0.187060
4309.35, 0.186721
4312.94, 0.186269
4316.53, 0.185761
4320.13, 0.185423
4323.73, 0.184971
4327.34, 0.184576
4330.96, 0.184181
4334.58, 0.183729
4338.21, 0.183278
4341.84, 0.182939
4345.48, 0.182600
4349.12, 0.182149
4352.77, 0.181641
4356.43, 0.181189
4360.1, 0.180794
4363.76, 0.180343
4367.44, 0.179778
4371.12, 0.179327
4374.81, 0.178932
4378.51, 0.178424
4382.21, 0.177859
4385.92, 0.177408
4389.63, 0.176900
4393.35, 0.176335
4397.08, 0.175771
4400.81, 0.175432
4404.55, 0.174924
4408.29, 0.174472
4412.04, 0.173964
4415.8, 0.173400
4419.57, 0.172779
4423.34, 0.172327
4427.12, 0.171763
4430.9, 0.171255
4434.69, 0.170803
4438.49, 0.170465
4442.29, 0.170013
4446.1, 0.169336
4449.92, 0.168884
4453.74, 0.168376
4457.57, 0.167699
4461.41, 0.167078
4465.25, 0.166514
4469.1, 0.166118
4472.95, 0.165780
4476.82, 0.165441
4480.69, 0.164990
4484.56, 0.164594
4488.44, 0.164256
4492.33, 0.163861
4496.23, 0.163466
4500.13, 0.163127
4504.04, 0.162788
4507.96, 0.162506
4511.88, 0.162224
4515.81, 0.161772
4519.75, 0.161208
4523.69, 0.160756
4527.65, 0.160305
4531.6, 0.159853
4535.57, 0.159176
4539.54, 0.158611
4543.52, 0.157990
4547.5, 0.157313
4551.5, 0.156579
4555.5, 0.155958
4559.5, 0.155225
4563.52, 0.154491
4567.54, 0.153701
4571.56, 0.152967
4575.6, 0.152233
4579.64, 0.151499
4583.69, 0.150596
4587.75, 0.149806
4591.81, 0.149016
4595.88, 0.148225
4599.96, 0.147379
4604.04, 0.146532
4608.14, 0.145629
4612.24, 0.144839
4616.34, 0.143992
4620.46, 0.143089
4624.58, 0.142186
4628.71, 0.141395
4632.84, 0.140436
4636.99, 0.139476
4641.14, 0.138573
4645.3, 0.137726
4649.47, 0.136880
4653.64, 0.135920
4657.82, 0.134961
4662.01, 0.134001
4666.21, 0.133154
4670.41, 0.132421
4674.62, 0.131574
4678.84, 0.130727
4683.07, 0.130050
4687.3, 0.129316
4691.54, 0.128582
4695.79, 0.127905
4700.05, 0.127171
4704.31, 0.126437
4708.59, 0.125704
4712.87, 0.124913
4717.15, 0.124067
4721.45, 0.123220
4725.76, 0.122430
4730.07, 0.121527
4734.39, 0.120680
4738.72, 0.119946
4743.05, 0.119156
4747.39, 0.118366
4751.75, 0.117576
4756.1, 0.116785
4760.47, 0.116108
4764.85, 0.115487
4769.23, 0.114866
4773.62, 0.114245
4778.02, 0.113681
4782.43, 0.113173
4786.85, 0.112665
4791.27, 0.112100
4795.7, 0.111592
4800.14, 0.110971
4804.59, 0.110463
4809.05, 0.109843
4813.51, 0.109222
4817.99, 0.108714
4822.47, 0.108093
4826.96, 0.107415
4831.46, 0.106907
4835.96, 0.106456
4840.48, 0.105835
4845.0, 0.105101
4849.54, 0.104424
4854.08, 0.103859
4858.63, 0.103238
4863.18, 0.102561
4867.75, 0.101827
4872.33, 0.101150
4876.91, 0.100416
4881.5, 0.0996820
4886.1, 0.0988920
4890.71, 0.0981580
4895.33, 0.0973680
4899.96, 0.0967470
4904.59, 0.0960700
4909.24, 0.0953360
4913.89, 0.0945460
4918.55, 0.0938120
4923.22, 0.0931910
4927.9, 0.0926830
4932.59, 0.0921190
4937.29, 0.0916670
4942.0, 0.0911030
4946.71, 0.0905380
4951.44, 0.0899170
4956.17, 0.0892960
4960.91, 0.0885630
4965.67, 0.0878290
4970.43, 0.0870950
4975.2, 0.0863050
4979.98, 0.0855150
4984.76, 0.0848940
4989.56, 0.0842730
4994.37, 0.0837080
4999.18, 0.0830870
5004.01, 0.0825230
5008.84, 0.0819020
5013.69, 0.0813380
5018.54, 0.0808300
5023.4, 0.0802090
5028.28, 0.0795880
5033.16, 0.0790800
5038.05, 0.0783460
5042.95, 0.0776690
5047.86, 0.0769910
5052.78, 0.0764270
5057.71, 0.0758620
5062.65, 0.0752980
5067.6, 0.0747900
5072.56, 0.0742820
5077.53, 0.0738300
5082.5, 0.0735480
5087.49, 0.0730400
5092.49, 0.0726450
5097.5, 0.0723630
5102.51, 0.0719680
5107.54, 0.0715730
5112.58, 0.0712340
5117.62, 0.0708950
5122.68, 0.0705570
5127.75, 0.0701050
5132.82, 0.0697660
5137.91, 0.0694280
5143.01, 0.0690890
5148.12, 0.0687500
5153.23, 0.0682420
5158.36, 0.0677910
5163.5, 0.0675090
5168.65, 0.0671700
5173.81, 0.0667180
5178.98, 0.0663230
5184.15, 0.0659280
5189.34, 0.0655330
5194.54, 0.0652510
5199.75, 0.0649690
5204.98, 0.0644610
5210.21, 0.0641220
5215.45, 0.0636700
5220.7, 0.0629360
5225.96, 0.0624280
5231.23, 0.0619770
5236.52, 0.0614690
5241.81, 0.0609040
5247.12, 0.0603400
5252.44, 0.0598320
5257.76, 0.0593240
5263.1, 0.0589290
5268.45, 0.0586470
5273.81, 0.0583080
5279.18, 0.0579130
5284.56, 0.0576310
5289.95, 0.0575180
5295.36, 0.0573480
5300.77, 0.0570660
5306.2, 0.0568970
5311.63, 0.0568400
5317.08, 0.0567840
5322.54, 0.0566710
5328.01, 0.0565580
5333.49, 0.0565020
5338.98, 0.0564450
5344.49, 0.0564450
5350.0, 0.0566150
5355.53, 0.0564450
5361.07, 0.0561070
5366.62, 0.0559940
5372.18, 0.0559370
5377.75, 0.0559370
5383.34, 0.0559940
5388.93, 0.0560500
5394.54, 0.0561070
5400.16, 0.0561070
5405.79, 0.0561630
5411.44, 0.0562760
5417.09, 0.0566150
5422.76, 0.0569530
5428.43, 0.0565580
5434.12, 0.0563320
5439.83, 0.0563890
5445.54, 0.0563890
5451.26, 0.0563890
5457.0, 0.0565020
5462.75, 0.0567280
5468.52, 0.0565020
5474.29, 0.0562760
5480.08, 0.0561630
5485.88, 0.0558810
5491.69, 0.0556550
5497.51, 0.0554290
5503.35, 0.0552600
5509.2, 0.0550340
5515.06, 0.0548650
5520.93, 0.0546950
5526.82, 0.0544130
5532.71, 0.0540180
5538.63, 0.0537920
5544.55, 0.0536230
5550.49, 0.0534540
5556.44, 0.0530590
5562.4, 0.0525510
5568.37, 0.0520990
5574.36, 0.0521550
5580.36, 0.0520990
5586.37, 0.0513650
5592.4, 0.0508570
5598.44, 0.0507440
5604.49, 0.0505750
5610.56, 0.0503490
5616.63, 0.0501800
5622.73, 0.0498980
5628.83, 0.0497280
5634.95, 0.0500110
5641.08, 0.0505190
5647.23, 0.0502360
5653.39, 0.0499540
5659.56, 0.0497850
5665.74, 0.0495590
5671.94, 0.0496720
5678.15, 0.0496720
5684.38, 0.0493900
5690.62, 0.0492770
5696.87, 0.0491070
5703.14, 0.0489950
5709.42, 0.0491640
5715.72, 0.0489380
5722.03, 0.0485430
5728.35, 0.0480910
5734.69, 0.0478660
5741.03, 0.0477530
5747.4, 0.0476400
5753.78, 0.0470750
5760.17, 0.0472450
5766.58, 0.0475270
5773.0, 0.0463980
5779.44, 0.0455510
5785.88, 0.0451000
5792.35, 0.0447610
5798.83, 0.0444220
5805.32, 0.0439710
5811.83, 0.0438580
5818.35, 0.0441400
5824.89, 0.0438580
5831.45, 0.0430680
5838.01, 0.0423900
5844.59, 0.0418820
5851.19, 0.0414870
5857.8, 0.0413180
5864.43, 0.0411490
5871.07, 0.0408100
5877.73, 0.0413740
5884.4, 0.0409230
5891.09, 0.0399630
5897.79, 0.0395680
5904.5, 0.0383260
5911.23, 0.0376490
5917.98, 0.0371970
5924.75, 0.0368020
5931.53, 0.0369720
5938.32, 0.0368590
5945.13, 0.0357300
5951.96, 0.0349400
5958.8, 0.0346010
5965.65, 0.0346010
5972.53, 0.0342060
5979.42, 0.0338110
5986.32, 0.0338670
5993.24, 0.0335280
6000.18, 0.0329080
6007.13, 0.0326250
6014.1, 0.0325690
6021.08, 0.0321740
6028.09, 0.0319480
6035.1, 0.0318920
6042.14, 0.0324000
6049.19, 0.0330200
6056.25, 0.0319480
6063.34, 0.0313270
6070.44, 0.0314400
6077.55, 0.0311010
6084.69, 0.0305370
6091.84, 0.0301420
6099.0, 0.0300290
6106.19, 0.0303110
6113.39, 0.0305930
6120.61, 0.0300290
6127.84, 0.0295210
6135.09, 0.0294640
6142.36, 0.0294080
6149.65, 0.0291820
6156.95, 0.0292390
6164.27, 0.0291820
6171.61, 0.0291260
6178.97, 0.0293520
6186.34, 0.0295210
6193.73, 0.0291260
6201.14, 0.0289000
6208.57, 0.0289000
6216.01, 0.0290130
6223.47, 0.0290690
6230.95, 0.0290690
6238.45, 0.0290690
6245.97, 0.0290130
6253.5, 0.0290690
6261.06, 0.0292950
6268.63, 0.0293520
6276.21, 0.0294080
6283.82, 0.0294640
6291.45, 0.0295210
6299.1, 0.0295770
6306.76, 0.0296900
6314.44, 0.0298600
6322.14, 0.0300850
6329.86, 0.0301420
6337.6, 0.0305930
6345.35, 0.0309320
6353.13, 0.0305930
6360.92, 0.0305370
6368.74, 0.0308190
6376.57, 0.0307630
6384.43, 0.0307060
6392.3, 0.0307060
6400.19, 0.0308190
6408.1, 0.0317220
6416.03, 0.0321170
6423.98, 0.0312140
6431.95, 0.0308190
6439.94, 0.0307060
6447.95, 0.0304800
6455.98, 0.0301980
6464.03, 0.0301420
6472.1, 0.0303680
6480.19, 0.0305930
6488.31, 0.0310450
6496.44, 0.0309880
6504.59, 0.0300850
6512.76, 0.0297470
6520.95, 0.0298600
6529.16, 0.0295770
6537.4, 0.0294080
6545.65, 0.0295770
6553.92, 0.0296900
6562.22, 0.0298030
6570.54, 0.0301980
6578.88, 0.0300850
6587.23, 0.0299160
6595.61, 0.0298600
6604.02, 0.0296340
6612.44, 0.0295770
6620.89, 0.0296900
6629.35, 0.0302550
6637.84, 0.0307060
6646.35, 0.0299160
6654.88, 0.0294640
6663.44, 0.0295210
6672.01, 0.0296340
6680.61, 0.0296340
6689.23, 0.0294080
6697.88, 0.0291820
6706.54, 0.0292950
6715.23, 0.0294640
6723.94, 0.0294080
6732.67, 0.0292390
6741.42, 0.0291820
6750.2, 0.0292950
6759.0, 0.0292390
6767.82, 0.0293520
6776.67, 0.0295770
6785.54, 0.0298030
6794.44, 0.0296900
6803.35, 0.0292390
6812.29, 0.0291820
6821.26, 0.0294080
6830.24, 0.0294640
6839.25, 0.0291820
6848.29, 0.0292950
6857.35, 0.0296900
6866.43, 0.0296340
6875.54, 0.0290130
6884.67, 0.0287310
6893.82, 0.0286180
6903.0, 0.0285610
6912.2, 0.0283920
6921.43, 0.0281660
6930.69, 0.0280530
6939.96, 0.0279400
6949.27, 0.0279400
6958.59, 0.0281100
6967.95, 0.0277710
6977.33, 0.0273200
6986.73, 0.0270940
6996.16, 0.0267550
7005.61, 0.0265290
7015.09, 0.0264160
7024.6, 0.0261910
7034.13, 0.0259080
7043.69, 0.0259080
7053.27, 0.0256830
7062.88, 0.0251750
7072.52, 0.0248360
7082.18, 0.0245540
7091.87, 0.0243280
7101.58, 0.0240460
7111.32, 0.0239330
7121.09, 0.0238200
7130.88, 0.0235940
7140.71, 0.0233680
7150.56, 0.0230300
7160.43, 0.0228600
7170.33, 0.0226910
7180.27, 0.0223520
7190.23, 0.0220700
7200.21, 0.0219570
7210.23, 0.0217880
7220.27, 0.0214490
7230.34, 0.0211110
7240.44, 0.0208280
7250.56, 0.0205460
7260.72, 0.0202640
7270.9, 0.0201510
7281.12, 0.0198690
7291.36, 0.0195870
7301.63, 0.0194170
7311.93, 0.0192480
7322.25, 0.0190220
7332.61, 0.0188530
7343.0, 0.0186270
7353.41, 0.0183450
7363.86, 0.0180620
7374.33, 0.0178370
7384.83, 0.0175540
7395.37, 0.0173290
7405.93, 0.0171030
7416.53, 0.0168210
7427.15, 0.0166510
7437.81, 0.0164260
7448.5, 0.0162000
7459.22, 0.0160300
7469.96, 0.0158050
7480.74, 0.0155790
7491.55, 0.0152400
7502.39, 0.0150140
7513.27, 0.0149020
7524.17, 0.0146760
7535.11, 0.0145630
7546.08, 0.0143370
7557.08, 0.0141680
7568.11, 0.0139980
7579.17, 0.0137160
7590.27, 0.0134900
7601.4, 0.0132650
7612.56, 0.0130950
7623.76, 0.0130390
7634.98, 0.0129260
7646.24, 0.0127000
7657.54, 0.0125310
7668.87, 0.0124180
7680.23, 0.0123050
7691.62, 0.0123050
7703.05, 0.0121360
7714.51, 0.0119660
7726.01, 0.0118540
7737.54, 0.0116840
7749.11, 0.0115710
7760.71, 0.0114580
7772.35, 0.0114020
7784.02, 0.0113460
7795.72, 0.0111760
7807.46, 0.0111200
7819.23, 0.0110630
7831.04, 0.0111200
7842.89, 0.0111760
7854.77, 0.0111760
7866.69, 0.0111200
7878.65, 0.0112330
7890.64, 0.0112890
7902.67, 0.0114020
7914.74, 0.0115150
7926.84, 0.0116280
7938.98, 0.0117970
7951.16, 0.0120790
7963.37, 0.0123050
7975.62, 0.0125310
7987.91, 0.0128130
8000.24, 0.0130950
8012.6, 0.0133210
8025.01, 0.0135470
8037.45, 0.0138860
8049.93, 0.0143370
8062.45, 0.0148450
8075.01, 0.0153530
8087.61, 0.0159180
8100.24, 0.0165380
8112.91, 0.0173290
8125.63, 0.0182320
8138.39, 0.0192480
8151.18, 0.0203770
8164.02, 0.0215060
8176.9, 0.0228040
8189.81, 0.0241590
8202.77, 0.0255700
8215.77, 0.0270370
8228.82, 0.0287310
8241.9, 0.0305930
8255.02, 0.0324000
8268.19, 0.0342620
8281.39, 0.0360690
8294.65, 0.0375930
8307.94, 0.0389470
8321.28, 0.0401330
8334.66, 0.0410920
8348.08, 0.0418820
8361.54, 0.0423900
8375.05, 0.0429550
8388.6, 0.0434060
8402.2, 0.0436890
8415.84, 0.0438580
8429.52, 0.0440840
8443.25, 0.0442530
8457.02, 0.0444220
8470.84, 0.0445920
8484.7, 0.0447050
8498.61, 0.0447050
8512.57, 0.0448740
8526.57, 0.0449870
8540.62, 0.0452130
8554.71, 0.0453820
8568.85, 0.0454380
8583.04, 0.0455510
8597.27, 0.0454950
8611.55, 0.0454950
8625.88, 0.0458900
8640.26, 0.0465670
8654.68, 0.0474140
8669.16, 0.0484860
8683.68, 0.0496720
8698.25, 0.0507440
8712.87, 0.0518170
8727.53, 0.0531710
8742.25, 0.0546950
8757.02, 0.0562760
8771.83, 0.0579690
8786.7, 0.0597190
8801.62, 0.0616380
8816.59, 0.0635570
8831.61, 0.0655330
8846.68, 0.0674520
8861.8, 0.0692020
8876.97, 0.0705570
8892.2, 0.0718550
8907.48, 0.0729270
8922.81, 0.0740560
8938.2, 0.0752980
8953.63, 0.0764270
8969.13, 0.0772740
8984.67, 0.0776120
9000.27, 0.0778940
9015.92, 0.0781200
9031.63, 0.0780070
9047.39, 0.0780070
9063.21, 0.0778380
9079.08, 0.0773860
9095.01, 0.0767660
9111.0, 0.0763140
9127.04, 0.0758620
9143.13, 0.0756370
9159.28, 0.0753540
9175.49, 0.0749030
9191.76, 0.0744510
9208.09, 0.0742260
9224.47, 0.0741130
9240.92, 0.0738300
9257.42, 0.0734920
9273.98, 0.0732100
9290.6, 0.0728140
9307.28, 0.0724190
9324.02, 0.0720240
9340.82, 0.0714600
9357.68, 0.0707260
9374.6, 0.0697100
9391.58, 0.0686370
9408.62, 0.0676210
9425.73, 0.0666620
9442.9, 0.0657590
9460.13, 0.0650810
9477.42, 0.0646300
9494.78, 0.0643480
9512.2, 0.0639530
9529.69, 0.0636700
9547.24, 0.0636700
9564.86, 0.0637830
9582.54, 0.0639530
9600.28, 0.0641780
9618.1, 0.0645170
9635.97, 0.0647990
9653.92, 0.0651380
9671.93, 0.0655890
9690.01, 0.0659280
9708.16, 0.0662670
9726.37, 0.0666050
9744.65, 0.0669440
9763.0, 0.0672260
9781.43, 0.0674520
9799.92, 0.0680170
9818.48, 0.0685250
9837.1, 0.0688070
9855.8, 0.0690890
9874.58, 0.0692020
9893.42, 0.0692020
9912.34, 0.0693150
9931.33, 0.0693150
9950.39, 0.0692020
9969.52, 0.0691450
9988.74, 0.0689200
10008.0, 0.0685810
10027.4, 0.0682990
10046.8, 0.0679040
10066.3, 0.0674520
10085.9, 0.0668880
10105.6, 0.0663230
10125.3, 0.0657590
10145.1, 0.0650250
10165.0, 0.0645730
10185.0, 0.0644610
10205.0, 0.0646300
10225.2, 0.0650250
10245.4, 0.0657590
10265.7, 0.0667750
10286.0, 0.0677340
10306.5, 0.0688070
10327.0, 0.0698790
10347.6, 0.0709520
10368.3, 0.0720810
10389.1, 0.0728710
10409.9, 0.0732100
10430.9, 0.0731530
10451.9, 0.0729270
10473.0, 0.0726450
10494.2, 0.0723630
10515.5, 0.0721370
10536.9, 0.0720240
10558.4, 0.0720240
10579.9, 0.0720240
10601.5, 0.0724190
10623.3, 0.0725890
10645.1, 0.0727020
10667.0, 0.0729840
10689.0, 0.0732100
10711.1, 0.0729270
10733.2, 0.0728710
10755.5, 0.0730970
10777.9, 0.0730970
10800.3, 0.0729840
10822.9, 0.0728710
10845.5, 0.0729270
10868.2, 0.0729840
10891.1, 0.0725890
10914.0, 0.0717420
10937.0, 0.0707260
10960.2, 0.0697100
10983.4, 0.0687500
11006.7, 0.0681860
11030.1, 0.0680730
11053.6, 0.0685250
11077.3, 0.0692020
11101.0, 0.0697660
11124.8, 0.0699360
11148.7, 0.0699360
11172.7, 0.0696530
11196.9, 0.0693710
11221.1, 0.0690890
11245.4, 0.0685810
11269.9, 0.0678470
11294.4, 0.0670010
11319.1, 0.0662100
11343.9, 0.0654200
11368.8, 0.0645170
11393.7, 0.0636700
11418.8, 0.0627670
11444.0, 0.0618640
11469.4, 0.0609040
11494.8, 0.0598880
11520.3, 0.0588160
11546.0, 0.0576310
11571.8, 0.0564450
11597.7, 0.0552030
11623.7, 0.0537360
11649.8, 0.0524940
11676.0, 0.0514220
11702.4, 0.0502360
11728.9, 0.0489380
11755.5, 0.0477530
11782.2, 0.0467370
11809.0, 0.0458340
11836.0, 0.0449300
11863.0, 0.0438580
11890.3, 0.0431240
11917.6, 0.0423900
11945.0, 0.0416000
11972.6, 0.0410920
12000.4, 0.0403580
12028.2, 0.0396250
12056.2, 0.0390040
12084.3, 0.0382130
12112.5, 0.0374230
12140.9, 0.0368020
12169.4, 0.0360120
12198.0, 0.0352220
12226.8, 0.0346010
12255.7, 0.0339240
12284.7, 0.0330770
12313.9, 0.0324000
12343.2, 0.0320040
12372.7, 0.0316090
12402.3, 0.0311010
12432.0, 0.0305930
12461.9, 0.0300290
12491.9, 0.0294640
12522.1, 0.0289560
12552.4, 0.0283920
12582.9, 0.0279970
12613.5, 0.0278280
12644.3, 0.0272630
12675.2, 0.0270940
12706.3, 0.0272630
12737.5, 0.0272630
12768.9, 0.0270370
12800.4, 0.0272070
12832.1, 0.0273760
12863.9, 0.0270370
12895.9, 0.0266990
12928.1, 0.0265860
12960.4, 0.0263600
12992.9, 0.0261910
13025.5, 0.0256830
13058.3, 0.0254570
13091.3, 0.0256830
13124.4, 0.0256830
13157.8, 0.0255700
13191.2, 0.0256260
13224.9, 0.0257950
13258.7, 0.0259080
13292.7, 0.0257390
13326.9, 0.0257390
13361.2, 0.0258520
13395.7, 0.0255700
13430.4, 0.0252870
13465.3, 0.0253440
13500.4, 0.0252870
13535.7, 0.0250620
13571.1, 0.0250050
13606.7, 0.0248360
13642.5, 0.0247790
13678.5, 0.0249490
13714.7, 0.0248920
13751.1, 0.0245540
13787.6, 0.0243840
13824.4, 0.0244410
13861.4, 0.0246100
13898.5, 0.0246100
13935.9, 0.0242710
13973.5, 0.0238760
14011.2, 0.0233680
14049.2, 0.0229170
14087.4, 0.0228040
14125.8, 0.0224650
14164.3, 0.0219570
14203.2, 0.0218440
14242.2, 0.0213360
14281.4, 0.0209980
14320.9, 0.0208850
14360.5, 0.0206590
14400.4, 0.0204330
14440.5, 0.0201510
14480.9, 0.0199250
14521.4, 0.0198120
14562.2, 0.0196430
14603.3, 0.0196430
14644.5, 0.0198120
14686.0, 0.0196430
14727.7, 0.0196430
14769.7, 0.0199250
14811.9, 0.0200380
14854.3, 0.0198690
14897.0, 0.0199250
14939.9, 0.0199250
14983.1, 0.0198690
15026.5, 0.0194740
15070.2, 0.0191350
15114.2, 0.0192480
15158.3, 0.0194170
15202.8, 0.0197560
15247.5, 0.0205460
15292.5, 0.0217310
15337.7, 0.0236510
15383.2, 0.0261340
15429.0, 0.0286740
15475.1, 0.0314400
15521.4, 0.0344320
15568.0, 0.0368020
15614.9, 0.0388340
15662.1, 0.0401330
15709.6, 0.0410360
15757.3, 0.0417130
15805.4, 0.0419950
15853.7, 0.0418260
15902.3, 0.0415440
15951.2, 0.0413180
16000.5, 0.0408100
16050.0, 0.0404150
16099.8, 0.0399630
16150.0, 0.0398500
16200.5, 0.0400760
16251.3, 0.0403580
16302.4, 0.0406970
16353.8, 0.0416000
16405.5, 0.0428980
16457.6, 0.0439710
16510.0, 0.0445350
16562.8, 0.0449300
16615.9, 0.0453820
16669.3, 0.0458900
16723.1, 0.0459460
16777.2, 0.0461720
16831.7, 0.0470750
16886.5, 0.0480910
16941.7, 0.0491070
16997.2, 0.0502360
17053.1, 0.0514780
17109.4, 0.0530020
17166.1, 0.0546390
17223.1, 0.0561630
17280.5, 0.0574050
17338.3, 0.0586470
17396.5, 0.0598320
17455.1, 0.0610740
17514.0, 0.0628800
17573.4, 0.0645730
17633.2, 0.0651380
17693.4, 0.0659850
17754.0, 0.0672260
17815.0, 0.0680730
17876.4, 0.0682990
17938.3, 0.0690890
18000.5, 0.0695970
18063.3, 0.0699920
18126.4, 0.0713470
18190.0, 0.0732660
18254.1, 0.0747900
18318.6, 0.0763700
18383.5, 0.0782330
18449.0, 0.0799270
18514.9, 0.0808300
18581.2, 0.0812250
18648.0, 0.0804910
18715.4, 0.0793620
18783.2, 0.0785150
18851.5, 0.0781770
18920.3, 0.0778380
18989.6, 0.0774990
19059.4, 0.0778380
19129.7, 0.0784030
19200.6, 0.0788540
19272.0, 0.0796440
19343.9, 0.0800960
19416.3, 0.0797570
19489.3, 0.0798700
19562.8, 0.0806040
19637.0, 0.0800390
19711.6, 0.0792490
19786.8, 0.0783460
19862.6, 0.0778380
19939.0, 0.0764830
20016.0, 0.0746210
20093.6, 0.0731530
20171.8, 0.0716290
20250.6, 0.0705570
20330.0, 0.0705000
20410.0, 0.0707260
20490.7, 0.0704440
20572.0, 0.0711210
20654.0, 0.0723630
20736.6, 0.0732660
20819.9, 0.0736050
20903.8, 0.0738300
20988.5, 0.0733220
21073.8, 0.0724190
21159.8, 0.0732100
21246.5, 0.0734920
21334.0, 0.0720240
21422.1, 0.0703310
21511.0, 0.0682420
21600.7, 0.0668880
21691.0, 0.0661540
21782.1, 0.0640090
21874.0, 0.0616950
21966.7, 0.0605660
22060.2, 0.0591550
22154.5, 0.0585340
22249.6, 0.0579130
22345.5, 0.0578000
22442.2, 0.0575180
22539.8, 0.0558240
22638.2, 0.0552030
22737.5, 0.0570660
22837.7, 0.0585340
22938.7, 0.0581390
23040.7, 0.0570100
23143.5, 0.0572920
23247.3, 0.0584210
23352.1, 0.0586470
23457.7, 0.0579690
23564.4, 0.0571230
23672.0, 0.0575740
23780.5, 0.0583640
23890.1, 0.0579130
24000.7, 0.0586470
24112.3, 0.0620330
24225.0, 0.0631060
24338.7, 0.0628800
24453.5, 0.0640090
24569.4, 0.0666050
24686.4, 0.0670570
24804.5, 0.0672260
