Database of Origin, USGS Spectral Database
Sample Description, See USGS database for additional info
Date Added,2016-08-03 21:28:52.980720

Data ID,USGS_cum02          
Sample ID, cummingtonite_hs294-3b.6595
Mineral Name, cummingtonite
Material Class,Inosilicate

Wavelength
1578.13, 0.0758630
1578.61, 0.0764850
1579.09, 0.0768590
1579.57, 0.0767340
1580.05, 0.0764020
1580.54, 0.0763610
1581.02, 0.0766100
1581.5, 0.0765680
1581.98, 0.0766100
1582.47, 0.0768170
1582.95, 0.0770660
1583.43, 0.0771490
1583.92, 0.0773980
1584.4, 0.0778950
1584.88, 0.0778540
1585.37, 0.0777710
1585.85, 0.0777710
1586.34, 0.0778130
1586.82, 0.0777300
1587.31, 0.0778540
1587.8, 0.0782270
1588.28, 0.0781440
1588.77, 0.0780200
1589.26, 0.0779780
1589.74, 0.0779780
1590.23, 0.0782270
1590.72, 0.0786840
1591.21, 0.0787670
1591.7, 0.0790150
1592.19, 0.0793890
1592.67, 0.0793890
1593.16, 0.0793060
1593.65, 0.0793060
1594.14, 0.0791810
1594.63, 0.0789740
1595.12, 0.0790570
1595.61, 0.0796790
1596.11, 0.0799280
1596.6, 0.0800110
1597.09, 0.0799690
1597.58, 0.0799690
1598.08, 0.0802600
1598.57, 0.0801770
1599.06, 0.0799280
1599.55, 0.0801770
1600.05, 0.0805920
1600.54, 0.0807160
1601.04, 0.0806330
1601.53, 0.0806330
1602.03, 0.0805090
1602.52, 0.0805500
1603.02, 0.0809650
1603.51, 0.0812140
1604.01, 0.0813380
1604.5, 0.0812550
1605.0, 0.0812550
1605.5, 0.0814210
1606.0, 0.0814210
1606.49, 0.0813800
1606.99, 0.0815870
1607.49, 0.0821680
1607.99, 0.0821680
1608.49, 0.0817940
1608.99, 0.0816280
1609.49, 0.0820430
1609.99, 0.0823340
1610.49, 0.0826240
1610.99, 0.0827070
1611.49, 0.0823750
1611.99, 0.0825000
1612.49, 0.0829970
1612.99, 0.0830800
1613.49, 0.0829140
1614.0, 0.0830800
1614.5, 0.0832050
1615.0, 0.0833710
1615.51, 0.0837020
1616.01, 0.0837850
1616.51, 0.0837440
1617.02, 0.0838270
1617.52, 0.0837850
1618.03, 0.0837020
1618.53, 0.0839510
1619.04, 0.0838680
1619.54, 0.0837020
1620.05, 0.0839100
1620.55, 0.0842000
1621.06, 0.0843660
1621.57, 0.0846560
1622.08, 0.0847390
1622.58, 0.0846150
1623.09, 0.0849050
1623.6, 0.0849470
1624.11, 0.0850300
1624.62, 0.0853610
1625.13, 0.0853610
1625.64, 0.0853610
1626.15, 0.0854440
1626.66, 0.0856100
1627.17, 0.0858590
1627.68, 0.0856930
1628.19, 0.0853200
1628.7, 0.0853610
1629.21, 0.0856520
1629.72, 0.0859010
1630.24, 0.0859420
1630.75, 0.0861500
1631.26, 0.0862330
1631.78, 0.0861080
1632.29, 0.0863980
1632.8, 0.0866890
1633.32, 0.0866890
1633.83, 0.0866060
1634.35, 0.0869790
1634.86, 0.0872280
1635.38, 0.0871450
1635.9, 0.0870620
1636.41, 0.0871450
1636.93, 0.0872690
1637.45, 0.0871040
1637.96, 0.0868960
1638.48, 0.0868960
1639.0, 0.0873940
1639.52, 0.0876840
1640.04, 0.0877670
1640.56, 0.0879330
1641.08, 0.0879330
1641.59, 0.0879330
1642.11, 0.0881820
1642.63, 0.0881410
1643.16, 0.0882230
1643.68, 0.0885140
1644.2, 0.0887210
1644.72, 0.0888460
1645.24, 0.0890120
1645.76, 0.0889700
1646.29, 0.0885550
1646.81, 0.0888460
1647.33, 0.0893430
1647.86, 0.0890950
1648.38, 0.0891770
1648.9, 0.0893430
1649.43, 0.0890950
1649.95, 0.0892190
1650.48, 0.0895920
1651.0, 0.0897170
1651.53, 0.0897170
1652.06, 0.0898410
1652.58, 0.0898830
1653.11, 0.0895510
1653.64, 0.0897580
1654.17, 0.0899660
1654.69, 0.0900070
1655.22, 0.0902140
1655.75, 0.0902140
1656.28, 0.0904630
1656.81, 0.0907120
1657.34, 0.0910020
1657.87, 0.0910440
1658.4, 0.0907540
1658.93, 0.0907950
1659.46, 0.0908370
1659.99, 0.0908370
1660.52, 0.0911270
1661.05, 0.0912510
1661.59, 0.0912930
1662.12, 0.0913760
1662.65, 0.0914590
1663.19, 0.0913340
1663.72, 0.0915420
1664.26, 0.0917080
1664.79, 0.0919150
1665.32, 0.0922470
1665.86, 0.0923710
1666.39, 0.0924130
1666.93, 0.0924960
1667.47, 0.0922880
1668.0, 0.0919560
1668.54, 0.0920810
1669.08, 0.0923300
1669.61, 0.0926200
1670.15, 0.0927450
1670.69, 0.0927450
1671.23, 0.0929100
1671.77, 0.0927030
1672.31, 0.0927030
1672.85, 0.0931590
1673.39, 0.0931590
1673.93, 0.0929930
1674.47, 0.0931590
1675.01, 0.0932010
1675.55, 0.0931590
1676.09, 0.0934500
1676.64, 0.0936570
1677.18, 0.0934500
1677.72, 0.0934910
1678.26, 0.0937400
1678.81, 0.0936160
1679.35, 0.0936160
1679.89, 0.0938230
1680.44, 0.0937810
1680.98, 0.0939470
1681.53, 0.0940720
1682.07, 0.0943210
1682.62, 0.0943620
1683.17, 0.0944450
1683.71, 0.0948600
1684.26, 0.0950260
1684.81, 0.0949010
1685.36, 0.0949840
1685.9, 0.0951090
1686.45, 0.0950260
1687.0, 0.0951090
1687.55, 0.0950260
1688.1, 0.0949840
1688.65, 0.0951920
1689.2, 0.0952330
1689.75, 0.0953990
1690.3, 0.0956890
1690.85, 0.0957310
1691.41, 0.0956890
1691.96, 0.0956890
1692.51, 0.0957720
1693.06, 0.0959800
1693.61, 0.0957310
1694.17, 0.0957720
1694.72, 0.0961870
1695.28, 0.0965190
1695.83, 0.0965610
1696.39, 0.0965610
1696.94, 0.0964780
1697.5, 0.0963120
1698.05, 0.0964780
1698.61, 0.0964780
1699.17, 0.0965190
1699.72, 0.0965190
1700.28, 0.0966430
1700.84, 0.0969750
1701.4, 0.0970170
1701.95, 0.0971000
1702.51, 0.0975150
1703.07, 0.0975560
1703.63, 0.0976800
1704.19, 0.0975560
1704.75, 0.0972660
1705.31, 0.0974730
1705.88, 0.0978050
1706.44, 0.0977220
1707.0, 0.0975560
1707.56, 0.0975560
1708.12, 0.0978050
1708.69, 0.0980540
1709.25, 0.0980120
1709.81, 0.0980120
1710.38, 0.0982200
1710.94, 0.0982610
1711.51, 0.0983860
1712.07, 0.0983860
1712.64, 0.0983440
1713.2, 0.0984270
1713.77, 0.0986340
1714.34, 0.0986760
1714.9, 0.0986340
1715.47, 0.0988000
1716.04, 0.0989250
1716.61, 0.0992150
1717.18, 0.0992570
1717.74, 0.0992150
1718.31, 0.0994220
1718.88, 0.0996710
1719.45, 0.0997960
1720.02, 0.0996710
1720.59, 0.0995880
1721.17, 0.0995880
1721.74, 0.0997960
1722.31, 0.0998790
1722.88, 0.0998790
1723.45, 0.100128
1724.03, 0.100169
1724.6, 0.100376
1725.18, 0.100294
1725.75, 0.100335
1726.33, 0.100459
1726.9, 0.100418
1727.48, 0.100418
1728.05, 0.100542
1728.63, 0.100708
1729.2, 0.100750
1729.78, 0.100833
1730.36, 0.100874
1730.94, 0.100916
1731.51, 0.101165
1732.09, 0.101372
1732.67, 0.101538
1733.25, 0.101496
1733.83, 0.101372
1734.41, 0.101455
1734.99, 0.101745
1735.57, 0.101787
1736.15, 0.101621
1736.73, 0.101496
1737.32, 0.101870
1737.9, 0.102160
1738.48, 0.102284
1739.07, 0.102077
1739.65, 0.102202
1740.23, 0.102326
1740.82, 0.102284
1741.4, 0.102533
1741.99, 0.102658
1742.57, 0.102575
1743.16, 0.102575
1743.74, 0.102741
1744.33, 0.102865
1744.92, 0.102865
1745.51, 0.102741
1746.09, 0.102741
1746.68, 0.102699
1747.27, 0.102824
1747.86, 0.102990
1748.45, 0.103031
1749.04, 0.103114
1749.63, 0.103446
1750.22, 0.103695
1750.81, 0.103529
1751.4, 0.103363
1751.99, 0.103570
1752.59, 0.103861
1753.18, 0.103902
1753.77, 0.104027
1754.37, 0.104151
1754.96, 0.104109
1755.56, 0.104192
1756.15, 0.104317
1756.74, 0.104441
1757.34, 0.104607
1757.94, 0.104690
1758.53, 0.104690
1759.13, 0.104898
1759.73, 0.105022
1760.32, 0.104981
1760.92, 0.104939
1761.52, 0.104856
1762.12, 0.104939
1762.72, 0.104856
1763.32, 0.104981
1763.92, 0.105271
1764.52, 0.105395
1765.12, 0.105520
1765.72, 0.105520
1766.32, 0.105520
1766.92, 0.105354
1767.53, 0.105520
1768.13, 0.105727
1768.73, 0.105769
1769.34, 0.105893
1769.94, 0.105893
1770.55, 0.105976
1771.15, 0.106100
1771.76, 0.106266
1772.36, 0.106183
1772.97, 0.106100
1773.57, 0.106183
1774.18, 0.106266
1774.79, 0.106183
1775.4, 0.106349
1776.0, 0.106640
1776.61, 0.106723
1777.22, 0.106847
1777.83, 0.106889
1778.44, 0.107179
1779.05, 0.107303
1779.66, 0.107220
1780.27, 0.107220
1780.88, 0.107179
1781.5, 0.107054
1782.11, 0.107096
1782.72, 0.107428
1783.33, 0.107677
1783.95, 0.107842
1784.56, 0.107842
1785.18, 0.107677
1785.79, 0.107760
1786.41, 0.107884
1787.02, 0.108008
1787.64, 0.108091
1788.26, 0.108133
1788.87, 0.108133
1789.49, 0.108257
1790.11, 0.108340
1790.73, 0.108340
1791.35, 0.108340
1791.96, 0.108340
1792.58, 0.108423
1793.21, 0.108589
1793.83, 0.108714
1794.45, 0.108631
1795.07, 0.108631
1795.69, 0.108672
1796.31, 0.108921
1796.93, 0.109087
1797.56, 0.109087
1798.18, 0.109087
1798.8, 0.108962
1799.43, 0.109045
1800.05, 0.109211
1800.68, 0.109377
1801.3, 0.109502
1801.93, 0.109626
1802.56, 0.109750
1803.18, 0.109502
1803.81, 0.109709
1804.44, 0.110041
1805.07, 0.109999
1805.7, 0.109875
1806.33, 0.109999
1806.95, 0.110124
1807.58, 0.110373
1808.22, 0.110414
1808.85, 0.110414
1809.48, 0.110373
1810.11, 0.110207
1810.74, 0.110373
1811.38, 0.110290
1812.01, 0.110248
1812.64, 0.110373
1813.28, 0.110539
1813.91, 0.110580
1814.55, 0.110539
1815.18, 0.110746
1815.82, 0.110870
1816.45, 0.110912
1817.09, 0.111119
1817.73, 0.111161
1818.36, 0.111036
1819.0, 0.110995
1819.64, 0.111036
1820.28, 0.111327
1820.92, 0.111451
1821.56, 0.111576
1822.2, 0.111576
1822.84, 0.111658
1823.48, 0.111949
1824.12, 0.112032
1824.76, 0.111907
1825.41, 0.111907
1826.05, 0.112156
1826.69, 0.112239
1827.34, 0.112073
1827.98, 0.111949
1828.63, 0.112156
1829.27, 0.112405
1829.92, 0.112530
1830.56, 0.112322
1831.21, 0.112156
1831.86, 0.112488
1832.5, 0.112778
1833.15, 0.112654
1833.8, 0.112488
1834.45, 0.112654
1835.1, 0.112820
1835.75, 0.112903
1836.4, 0.112820
1837.05, 0.112903
1837.7, 0.112861
1838.35, 0.112944
1839.01, 0.113193
1839.66, 0.113359
1840.31, 0.113318
1840.96, 0.113359
1841.62, 0.113401
1842.27, 0.113401
1842.93, 0.113359
1843.58, 0.113442
1844.24, 0.113484
1844.9, 0.113608
1845.55, 0.113608
1846.21, 0.113649
1846.87, 0.113691
1847.53, 0.113691
1848.18, 0.113732
1848.84, 0.113732
1849.5, 0.113732
1850.16, 0.113774
1850.82, 0.113815
1851.48, 0.113940
1852.14, 0.114064
1852.81, 0.114230
1853.47, 0.114272
1854.13, 0.114189
1854.8, 0.114230
1855.46, 0.114437
1856.12, 0.114603
1856.79, 0.114479
1857.45, 0.114313
1858.12, 0.114355
1858.79, 0.114562
1859.45, 0.114811
1860.12, 0.114769
1860.79, 0.114728
1861.46, 0.114935
1862.12, 0.114852
1862.79, 0.114811
1863.46, 0.114894
1864.13, 0.114935
1864.8, 0.115018
1865.48, 0.115184
1866.15, 0.115184
1866.82, 0.115226
1867.49, 0.115226
1868.16, 0.115309
1868.84, 0.115640
1869.51, 0.115599
1870.19, 0.115599
1870.86, 0.115682
1871.54, 0.115765
1872.21, 0.115848
1872.89, 0.115640
1873.56, 0.115599
1874.24, 0.115682
1874.92, 0.115765
1875.6, 0.115889
1876.28, 0.116138
1876.96, 0.116097
1877.64, 0.115806
1878.32, 0.115806
1879.0, 0.115972
1879.68, 0.116055
1880.36, 0.116097
1881.04, 0.115972
1881.73, 0.116138
1882.41, 0.116345
1883.09, 0.116428
1883.78, 0.116470
1884.46, 0.116594
1885.15, 0.116636
1885.83, 0.116636
1886.52, 0.116802
1887.21, 0.116719
1887.89, 0.116636
1888.58, 0.116719
1889.27, 0.116843
1889.96, 0.116885
1890.65, 0.116843
1891.34, 0.116968
1892.03, 0.117175
1892.72, 0.117175
1893.41, 0.117092
1894.1, 0.117175
1894.79, 0.117341
1895.49, 0.117465
1896.18, 0.117424
1896.87, 0.117341
1897.57, 0.117548
1898.26, 0.117673
1898.96, 0.117673
1899.65, 0.117756
1900.35, 0.117714
1901.05, 0.117756
1901.74, 0.117756
1902.44, 0.117673
1903.14, 0.117590
1903.84, 0.117673
1904.54, 0.118088
1905.24, 0.118212
1905.94, 0.118378
1906.64, 0.118419
1907.34, 0.118212
1908.04, 0.118046
1908.75, 0.118088
1909.45, 0.118170
1910.15, 0.118336
1910.86, 0.118461
1911.56, 0.118627
1912.27, 0.118502
1912.97, 0.118585
1913.68, 0.118751
1914.39, 0.118834
1915.09, 0.118917
1915.8, 0.118793
1916.51, 0.118710
1917.22, 0.118834
1917.93, 0.119042
1918.64, 0.119124
1919.35, 0.119290
1920.06, 0.119539
1920.77, 0.119498
1921.48, 0.119415
1922.19, 0.119456
1922.91, 0.119498
1923.62, 0.119498
1924.33, 0.119622
1925.05, 0.119747
1925.76, 0.119705
1926.48, 0.119747
1927.19, 0.119830
1927.91, 0.119871
1928.63, 0.119788
1929.35, 0.119871
1930.07, 0.119996
1930.78, 0.120120
1931.5, 0.120161
1932.22, 0.120327
1932.94, 0.120410
1933.66, 0.120410
1934.39, 0.120493
1935.11, 0.120410
1935.83, 0.120410
1936.55, 0.120410
1937.28, 0.120410
1938.0, 0.120535
1938.73, 0.120452
1939.45, 0.120618
1940.18, 0.120867
1940.9, 0.120784
1941.63, 0.120742
1942.36, 0.120825
1943.09, 0.120908
1943.81, 0.121032
1944.54, 0.121115
1945.27, 0.121032
1946.0, 0.120991
1946.73, 0.121074
1947.47, 0.121157
1948.2, 0.121198
1948.93, 0.121198
1949.66, 0.121240
1950.4, 0.121364
1951.13, 0.121281
1951.86, 0.121406
1952.6, 0.121572
1953.34, 0.121447
1954.07, 0.121406
1954.81, 0.121323
1955.55, 0.121489
1956.29, 0.121696
1957.02, 0.121738
1957.76, 0.121613
1958.5, 0.121572
1959.24, 0.121572
1959.98, 0.121738
1960.72, 0.121986
1961.47, 0.121862
1962.21, 0.121572
1962.95, 0.121738
1963.7, 0.121986
1964.44, 0.121986
1965.18, 0.121945
1965.93, 0.122028
1966.67, 0.122194
1967.42, 0.122277
1968.17, 0.122194
1968.92, 0.122111
1969.66, 0.122277
1970.41, 0.122484
1971.16, 0.122526
1971.91, 0.122443
1972.66, 0.122484
1973.41, 0.122484
1974.16, 0.122526
1974.92, 0.122484
1975.67, 0.122484
1976.42, 0.122484
1977.18, 0.122567
1977.93, 0.122609
1978.69, 0.122733
1979.44, 0.122775
1980.2, 0.122733
1980.95, 0.122775
1981.71, 0.122692
1982.47, 0.122609
1983.23, 0.122650
1983.99, 0.122650
1984.74, 0.122733
1985.51, 0.122733
1986.27, 0.122733
1987.03, 0.122733
1987.79, 0.122816
1988.55, 0.123023
1989.32, 0.123106
1990.08, 0.123106
1990.84, 0.123148
1991.61, 0.123106
1992.37, 0.123148
1993.14, 0.123231
1993.9, 0.123272
1994.67, 0.123189
1995.44, 0.123148
1996.21, 0.123231
1996.98, 0.123314
1997.75, 0.123355
1998.52, 0.123480
1999.29, 0.123563
2000.06, 0.123438
2000.83, 0.123314
2001.6, 0.123397
2002.38, 0.123397
2003.15, 0.123355
2003.93, 0.123314
2004.7, 0.123397
2005.48, 0.123563
2006.25, 0.123563
2007.03, 0.123480
2007.81, 0.123646
2008.58, 0.123729
2009.36, 0.123646
2010.14, 0.123521
2010.92, 0.123521
2011.7, 0.123480
2012.48, 0.123604
2013.26, 0.123853
2014.05, 0.123770
2014.83, 0.123687
2015.61, 0.123853
2016.4, 0.123936
2017.18, 0.124102
2017.97, 0.124185
2018.75, 0.124060
2019.54, 0.124019
2020.32, 0.124143
2021.11, 0.124226
2021.9, 0.124351
2022.69, 0.124392
2023.48, 0.124392
2024.27, 0.124392
2025.06, 0.124600
2025.85, 0.124600
2026.64, 0.124558
2027.44, 0.124475
2028.23, 0.124392
2029.02, 0.124226
2029.82, 0.124351
2030.61, 0.124600
2031.41, 0.124600
2032.2, 0.124641
2033.0, 0.124848
2033.8, 0.125014
2034.6, 0.124973
2035.4, 0.124973
2036.2, 0.125097
2037.0, 0.125097
2037.8, 0.125056
2038.6, 0.125139
2039.4, 0.125097
2040.2, 0.125180
2041.01, 0.125429
2041.81, 0.125429
2042.61, 0.125429
2043.42, 0.125388
2044.22, 0.125222
2045.03, 0.125139
2045.84, 0.125263
2046.65, 0.125429
2047.46, 0.125595
2048.26, 0.125637
2049.07, 0.125554
2049.88, 0.125595
2050.69, 0.125761
2051.51, 0.125802
2052.32, 0.125761
2053.13, 0.125678
2053.94, 0.125927
2054.76, 0.126093
2055.57, 0.125885
2056.39, 0.125844
2057.2, 0.125968
2058.02, 0.125968
2058.84, 0.125968
2059.66, 0.125885
2060.48, 0.126010
2061.29, 0.126134
2062.11, 0.126217
2062.94, 0.126259
2063.76, 0.126134
2064.58, 0.126134
2065.4, 0.126051
2066.22, 0.126010
2067.05, 0.126134
2067.87, 0.126217
2068.7, 0.126217
2069.52, 0.126176
2070.35, 0.126259
2071.18, 0.126342
2072.0, 0.126383
2072.83, 0.126466
2073.66, 0.126466
2074.49, 0.126508
2075.32, 0.126466
2076.15, 0.126383
2076.98, 0.126300
2077.82, 0.126259
2078.65, 0.126259
2079.48, 0.126300
2080.32, 0.126425
2081.15, 0.126549
2081.99, 0.126673
2082.83, 0.126756
2083.66, 0.126549
2084.5, 0.126466
2085.34, 0.126632
2086.18, 0.126673
2087.02, 0.126632
2087.86, 0.126591
2088.7, 0.126508
2089.54, 0.126508
2090.39, 0.126508
2091.23, 0.126466
2092.07, 0.126466
2092.92, 0.126508
2093.76, 0.126673
2094.61, 0.126673
2095.45, 0.126466
2096.3, 0.126466
2097.15, 0.126300
2098.0, 0.126342
2098.85, 0.126591
2099.7, 0.126591
2100.55, 0.126591
2101.4, 0.126632
2102.25, 0.126632
2103.1, 0.126673
2103.96, 0.126715
2104.81, 0.126673
2105.67, 0.126673
2106.52, 0.126756
2107.38, 0.126673
2108.24, 0.126632
2109.09, 0.126715
2109.95, 0.126756
2110.81, 0.126715
2111.67, 0.126673
2112.53, 0.126632
2113.39, 0.126673
2114.25, 0.126673
2115.12, 0.126756
2115.98, 0.126673
2116.84, 0.126425
2117.71, 0.126342
2118.58, 0.126383
2119.44, 0.126508
2120.31, 0.126673
2121.18, 0.126673
2122.04, 0.126715
2122.91, 0.126964
2123.78, 0.126881
2124.65, 0.126756
2125.52, 0.126715
2126.4, 0.126591
2127.27, 0.126591
2128.14, 0.126756
2129.02, 0.126881
2129.89, 0.126798
2130.77, 0.126798
2131.64, 0.126673
2132.52, 0.126591
2133.4, 0.126673
2134.27, 0.126715
2135.15, 0.126798
2136.03, 0.126715
2136.91, 0.126632
2137.79, 0.126632
2138.68, 0.126715
2139.56, 0.126881
2140.44, 0.126922
2141.33, 0.126798
2142.21, 0.126839
2143.1, 0.127088
2143.99, 0.127047
2144.87, 0.126922
2145.76, 0.127005
2146.65, 0.127047
2147.54, 0.127047
2148.43, 0.127130
2149.32, 0.127213
2150.21, 0.127130
2151.1, 0.127047
2151.99, 0.127088
2152.89, 0.127088
2153.78, 0.127047
2154.68, 0.127171
2155.57, 0.127171
2156.47, 0.127171
2157.37, 0.127420
2158.27, 0.127503
2159.16, 0.127462
2160.06, 0.127462
2160.96, 0.127420
2161.86, 0.127337
2162.77, 0.127296
2163.67, 0.127420
2164.57, 0.127337
2165.48, 0.127213
2166.38, 0.127379
2167.29, 0.127296
2168.2, 0.127213
2169.1, 0.127379
2170.01, 0.127379
2170.92, 0.127337
2171.83, 0.127420
2172.74, 0.127503
2173.65, 0.127462
2174.56, 0.127296
2175.47, 0.127213
2176.39, 0.127213
2177.3, 0.127337
2178.22, 0.127337
2179.13, 0.127420
2180.05, 0.127420
2180.96, 0.127254
2181.88, 0.127337
2182.8, 0.127503
2183.72, 0.127545
2184.64, 0.127420
2185.56, 0.127337
2186.48, 0.127337
2187.41, 0.127503
2188.33, 0.127379
2189.25, 0.127296
2190.18, 0.127420
2191.1, 0.127337
2192.03, 0.127213
2192.96, 0.127213
2193.89, 0.127171
2194.82, 0.127171
2195.74, 0.127213
2196.68, 0.127296
2197.61, 0.127379
2198.54, 0.127420
2199.47, 0.127254
2200.4, 0.127088
2201.34, 0.127088
2202.28, 0.127171
2203.21, 0.127213
2204.15, 0.127130
2205.08, 0.126964
2206.02, 0.126881
2206.96, 0.126839
2207.9, 0.127005
2208.84, 0.127047
2209.78, 0.127005
2210.73, 0.127088
2211.67, 0.127047
2212.61, 0.127047
2213.56, 0.126922
2214.5, 0.126922
2215.45, 0.127005
2216.4, 0.126881
2217.35, 0.126798
2218.3, 0.126839
2219.24, 0.126839
2220.2, 0.126756
2221.15, 0.126673
2222.1, 0.126549
2223.05, 0.126383
2224.0, 0.126342
2224.96, 0.126300
2225.91, 0.126342
2226.87, 0.126383
2227.83, 0.126259
2228.79, 0.126134
2229.74, 0.125968
2230.7, 0.126051
2231.66, 0.126010
2232.63, 0.125802
2233.59, 0.125802
2234.55, 0.125761
2235.51, 0.125471
2236.48, 0.125305
2237.44, 0.125222
2238.41, 0.125056
2239.38, 0.124807
2240.34, 0.124641
2241.31, 0.124392
2242.28, 0.124309
2243.25, 0.124185
2244.22, 0.123811
2245.19, 0.123438
2246.17, 0.123148
2247.14, 0.122940
2248.12, 0.122526
2249.09, 0.122277
2250.07, 0.122069
2251.04, 0.121821
2252.02, 0.121572
2253.0, 0.121406
2253.98, 0.121198
2254.96, 0.120825
2255.94, 0.120535
2256.92, 0.120286
2257.91, 0.120161
2258.89, 0.120161
2259.88, 0.120369
2260.86, 0.120410
2261.85, 0.120286
2262.83, 0.120120
2263.82, 0.120203
2264.81, 0.120369
2265.8, 0.120535
2266.79, 0.120659
2267.78, 0.120867
2268.78, 0.120991
2269.77, 0.120908
2270.76, 0.120825
2271.76, 0.120950
2272.75, 0.121240
2273.75, 0.121240
2274.75, 0.121157
2275.75, 0.121240
2276.75, 0.121240
2277.75, 0.121281
2278.75, 0.121323
2279.75, 0.121364
2280.75, 0.121364
2281.76, 0.121281
2282.76, 0.121364
2283.77, 0.121406
2284.77, 0.121493
2285.78, 0.121231
2286.79, 0.120968
2287.8, 0.120968
2288.81, 0.120836
2289.82, 0.120880
2290.83, 0.120836
2291.84, 0.120705
2292.86, 0.120792
2293.87, 0.120705
2294.89, 0.120530
2295.91, 0.120223
2296.92, 0.120135
2297.94, 0.120048
2298.96, 0.119829
2299.98, 0.119609
2301.0, 0.119566
2302.02, 0.119522
2303.04, 0.119303
2304.07, 0.118865
2305.09, 0.118426
2306.12, 0.118207
2307.15, 0.118032
2308.17, 0.117901
2309.2, 0.117682
2310.23, 0.117463
2311.26, 0.117419
2312.29, 0.117375
2313.32, 0.117024
2314.35, 0.116586
2315.39, 0.116323
2316.42, 0.116061
2317.46, 0.116104
2318.5, 0.116192
2319.53, 0.116192
2320.57, 0.116017
2321.61, 0.115579
2322.65, 0.115141
2323.69, 0.115053
2324.73, 0.114965
2325.78, 0.114615
2326.82, 0.114396
2327.86, 0.114483
2328.91, 0.114352
2329.96, 0.114001
2331.01, 0.113651
2332.05, 0.113432
2333.1, 0.113388
2334.15, 0.113169
2335.21, 0.113081
2336.26, 0.113213
2337.31, 0.113344
2338.36, 0.113344
2339.42, 0.113081
2340.48, 0.113038
2341.53, 0.112862
2342.59, 0.112731
2343.65, 0.112687
2344.71, 0.112556
2345.77, 0.112643
2346.83, 0.112906
2347.9, 0.112775
2348.96, 0.112468
2350.02, 0.112775
2351.09, 0.113213
2352.16, 0.113213
2353.23, 0.113344
2354.29, 0.113432
2355.36, 0.113344
2356.43, 0.113651
2357.51, 0.113914
2358.58, 0.113958
2359.65, 0.113914
2360.73, 0.114133
2361.8, 0.114133
2362.88, 0.114045
2363.96, 0.114045
2365.03, 0.114264
2366.11, 0.114571
2367.19, 0.114746
2368.27, 0.115053
2369.36, 0.114965
2370.44, 0.114746
2371.53, 0.114615
2372.61, 0.114834
2373.7, 0.115053
2374.78, 0.115228
2375.87, 0.115272
2376.96, 0.115272
2378.05, 0.115622
2379.14, 0.115710
2380.24, 0.115710
2381.33, 0.115929
2382.42, 0.115885
2383.52, 0.116017
2384.61, 0.116148
2385.71, 0.115798
2386.81, 0.115579
2387.91, 0.115754
2389.01, 0.115885
2390.11, 0.116104
2391.22, 0.116104
2392.32, 0.116061
2393.42, 0.115842
2394.53, 0.115842
2395.64, 0.115842
2396.74, 0.115842
2397.85, 0.115798
2398.96, 0.115754
2400.07, 0.115710
2401.18, 0.115491
2402.3, 0.115666
2403.41, 0.115973
2404.52, 0.115842
2405.64, 0.115666
2406.76, 0.115666
2407.88, 0.115754
2408.99, 0.115622
2410.11, 0.115491
2411.23, 0.115535
2412.36, 0.115447
2413.48, 0.115447
2414.6, 0.115272
2415.73, 0.115184
2416.85, 0.115272
2417.98, 0.115491
2419.11, 0.115535
2420.24, 0.115535
2421.37, 0.115622
2422.5, 0.115666
2423.64, 0.115491
2424.77, 0.115710
2425.9, 0.115842
2427.04, 0.115798
2428.18, 0.115666
2429.31, 0.115754
2430.45, 0.115973
2431.59, 0.116104
2432.73, 0.115842
2433.88, 0.115579
2435.02, 0.115666
2436.16, 0.115666
2437.31, 0.115535
2438.45, 0.115710
2439.6, 0.115842
2440.75, 0.115885
2441.9, 0.116061
2443.05, 0.115929
2444.2, 0.115929
2445.35, 0.115842
2446.51, 0.115710
2447.67, 0.115754
2448.82, 0.115798
2449.98, 0.115622
2451.14, 0.115491
2452.3, 0.115622
2453.46, 0.115579
2454.62, 0.115491
2455.78, 0.115622
2456.94, 0.115535
2458.11, 0.115272
2459.28, 0.115316
2460.44, 0.115447
2461.61, 0.115228
2462.78, 0.114965
2463.95, 0.115053
2465.12, 0.115053
2466.3, 0.114921
2467.47, 0.114746
2468.65, 0.114571
2469.82, 0.114615
2471.0, 0.114702
2472.18, 0.114615
2473.36, 0.114615
2474.54, 0.114483
2475.72, 0.114308
2476.9, 0.114089
2478.08, 0.114220
2479.27, 0.114527
2480.46, 0.114440
2481.64, 0.114352
2482.83, 0.114089
2484.02, 0.113870
2485.21, 0.113870
2486.4, 0.113782
2487.6, 0.113782
2488.79, 0.114001
2489.99, 0.113782
2491.18, 0.113695
2492.38, 0.113695
2493.58, 0.113695
2494.78, 0.113651
2495.98, 0.113519
2497.18, 0.113476
2498.39, 0.113300
2499.59, 0.112994
2500.8, 0.112906
2502.01, 0.112994
2503.21, 0.113125
2504.42, 0.113213
2505.63, 0.113213
2506.84, 0.113213
2508.06, 0.112950
2509.27, 0.112556
2510.49, 0.112599
2511.7, 0.112643
2512.92, 0.112599
2514.14, 0.112424
2515.36, 0.112205
2516.58, 0.112117
2517.8, 0.112074
2519.03, 0.112161
2520.25, 0.112074
2521.48, 0.111942
2522.7, 0.112074
2523.93, 0.112117
2525.16, 0.111986
2526.39, 0.111898
2527.62, 0.111855
2528.86, 0.111811
2530.09, 0.111723
2531.33, 0.111855
2532.56, 0.112074
2533.8, 0.111898
2535.04, 0.112030
2536.28, 0.112205
2537.52, 0.111942
2538.76, 0.111986
2540.01, 0.112030
2541.25, 0.111986
2542.5, 0.112161
2543.75, 0.112336
2544.99, 0.112512
2546.24, 0.112643
2547.49, 0.112818
2548.75, 0.112950
2550.0, 0.113169
2551.26, 0.113432
2552.51, 0.113563
2553.77, 0.113519
2555.03, 0.113344
2556.29, 0.113300
2557.55, 0.113388
2558.81, 0.113782
2560.08, 0.114571
2561.34, 0.115535
2562.61, 0.115666
2563.88, 0.115535
2565.14, 0.115053
2566.41, 0.114483
2567.68, 0.114746
2568.96, 0.115579
2570.23, 0.115360
2571.51, 0.114878
2572.78, 0.115885
2574.06, 0.115929
2575.34, 0.115403
2576.62, 0.115754
2577.9, 0.115491
2579.18, 0.115316
2580.47, 0.115842
2581.75, 0.115842
2583.04, 0.116630
2584.32, 0.116981
2585.61, 0.115798
2586.9, 0.116148
2588.2, 0.116280
2589.49, 0.115929
2590.78, 0.115447
2592.08, 0.115579
2593.37, 0.117682
2594.67, 0.120442
2595.97, 0.118689
2597.27, 0.116280
2598.57, 0.115316
2599.88, 0.115403
2601.18, 0.115973
2602.49, 0.116367
2603.79, 0.117024
2605.1, 0.118032
2606.41, 0.117463
2607.72, 0.116411
2609.03, 0.116323
2610.35, 0.116104
2611.66, 0.115535
2612.98, 0.115666
2614.3, 0.115754
2615.62, 0.116630
2616.94, 0.117463
2618.26, 0.116455
2619.58, 0.116718
2620.91, 0.116762
2622.23, 0.115360
2623.56, 0.114878
2624.89, 0.115272
2626.22, 0.116455
2627.55, 0.115842
2628.88, 0.115842
2630.21, 0.117244
2631.55, 0.116192
2632.89, 0.115272
2634.22, 0.115316
2635.56, 0.114702
2636.9, 0.114527
2638.25, 0.114527
2639.59, 0.114527
2640.93, 0.114527
2642.28, 0.114702
2643.63, 0.114790
2644.98, 0.115184
2646.33, 0.115009
2647.68, 0.114659
2649.03, 0.114527
2650.39, 0.114746
2651.74, 0.115316
2653.1, 0.115447
2654.46, 0.115097
2655.82, 0.115184
2657.18, 0.114702
2658.54, 0.115184
2659.9, 0.115579
2661.27, 0.115228
2662.64, 0.115053
2664.01, 0.116543
2665.38, 0.118295
2666.74, 0.118295
2668.12, 0.116893
2669.49, 0.117945
2670.87, 0.118514
2672.24, 0.115973
2673.62, 0.115228
2675.0, 0.115842
2676.38, 0.116762
2677.76, 0.116543
2679.15, 0.115929
2680.54, 0.114220
2681.92, 0.113213
2683.31, 0.112775
2684.7, 0.111592
2686.09, 0.110409
2687.48, 0.109007
2688.88, 0.107517
2690.27, 0.106115
2691.67, 0.105151
2693.07, 0.104757
2694.47, 0.103399
2695.87, 0.100726
2697.27, 0.0984040
2698.67, 0.0969140
2700.08, 0.0962570
2701.49, 0.0954680
2702.9, 0.0941100
2704.31, 0.0928400
2705.72, 0.0917440
2707.13, 0.0906490
2708.54, 0.0901230
2709.96, 0.0896850
2711.38, 0.0884580
2712.8, 0.0861800
2714.22, 0.0849530
2715.64, 0.0842090
2717.06, 0.0837700
2718.49, 0.0837270
2719.91, 0.0844710
2721.34, 0.0831570
2722.77, 0.0809230
2724.2, 0.0794330
2725.63, 0.0763220
2727.07, 0.0736500
2728.5, 0.0731680
2729.94, 0.0734740
2731.38, 0.0730800
2732.82, 0.0718090
2734.26, 0.0695750
2735.7, 0.0666400
2737.15, 0.0649310
2738.59, 0.0659390
2740.04, 0.0683920
2741.49, 0.0696190
2742.94, 0.0691370
2744.39, 0.0679100
2745.84, 0.0658070
2747.3, 0.0630030
2748.76, 0.0610310
2750.21, 0.0616890
2751.67, 0.0644490
2753.14, 0.0671650
2754.6, 0.0694000
2756.06, 0.0697060
2757.53, 0.0683480
2759.0, 0.0672090
2760.46, 0.0653250
2761.94, 0.0628280
2763.41, 0.0608120
2764.88, 0.0614700
2766.36, 0.0640980
2767.83, 0.0661580
2769.31, 0.0670340
2770.79, 0.0671650
2772.27, 0.0665080
2773.76, 0.0658510
2775.24, 0.0652380
2776.73, 0.0644490
2778.22, 0.0637040
2779.71, 0.0630030
2781.2, 0.0623020
2782.69, 0.0617320
2784.18, 0.0612070
2785.68, 0.0610310
2787.18, 0.0609880
2788.68, 0.0605930
2790.18, 0.0604620
2791.68, 0.0606810
2793.19, 0.0609000
2794.69, 0.0609880
2796.2, 0.0612070
2797.71, 0.0612070
2799.22, 0.0611190
2800.73, 0.0610310
2802.24, 0.0609880
2803.76, 0.0607690
2805.28, 0.0601550
2806.8, 0.0597610
2808.32, 0.0596290
2809.84, 0.0593670
2811.36, 0.0591480
2812.89, 0.0591910
2814.42, 0.0593670
2815.94, 0.0594540
2817.48, 0.0597170
2819.01, 0.0601110
2820.54, 0.0602870
2822.08, 0.0605930
2823.61, 0.0609440
2825.15, 0.0613380
2826.69, 0.0616450
2828.23, 0.0619950
2829.78, 0.0623900
2831.32, 0.0628280
2832.87, 0.0632220
2834.42, 0.0635290
2835.97, 0.0637920
2837.52, 0.0642300
2839.08, 0.0646240
2840.63, 0.0649750
2842.19, 0.0651500
2843.75, 0.0654570
2845.31, 0.0657630
2846.87, 0.0659820
2848.44, 0.0663330
2850.0, 0.0665520
2851.57, 0.0666830
2853.14, 0.0670340
2854.71, 0.0673410
2856.28, 0.0674280
2857.86, 0.0674720
2859.43, 0.0676030
2861.01, 0.0678230
2862.59, 0.0679540
2864.17, 0.0680850
2865.76, 0.0681730
2867.34, 0.0683040
2868.93, 0.0683480
2870.52, 0.0684800
2872.11, 0.0686110
2873.7, 0.0685240
2875.29, 0.0684360
2876.89, 0.0685240
2878.49, 0.0686550
2880.08, 0.0686550
2881.69, 0.0684800
2883.29, 0.0684800
2884.89, 0.0683920
2886.5, 0.0682170
2888.11, 0.0682170
2889.72, 0.0681290
2891.33, 0.0679980
2892.94, 0.0679540
2894.56, 0.0678660
2896.17, 0.0676910
2897.79, 0.0676030
2899.42, 0.0674720
2901.04, 0.0676030
2902.66, 0.0676030
2904.29, 0.0673410
2905.92, 0.0669900
2907.55, 0.0668150
2909.18, 0.0667270
2910.81, 0.0665520
2912.45, 0.0664200
2914.08, 0.0662890
2915.72, 0.0663330
2917.36, 0.0663770
2919.01, 0.0662890
2920.65, 0.0662450
2922.3, 0.0664200
2923.94, 0.0664640
2925.59, 0.0663770
2927.25, 0.0662010
2928.9, 0.0660700
2930.56, 0.0661140
2932.21, 0.0662890
2933.87, 0.0662450
2935.53, 0.0662010
2937.2, 0.0662010
2938.86, 0.0663770
2940.53, 0.0664640
2942.2, 0.0663770
2943.87, 0.0663330
2945.54, 0.0665080
2947.22, 0.0667270
2948.89, 0.0667270
2950.57, 0.0669020
2952.25, 0.0670780
2953.93, 0.0670780
2955.62, 0.0670780
2957.3, 0.0672530
2958.99, 0.0674280
2960.68, 0.0675600
2962.37, 0.0678230
2964.07, 0.0679980
2965.76, 0.0679980
2967.46, 0.0680420
2969.16, 0.0683040
2970.86, 0.0686110
2972.56, 0.0686990
2974.27, 0.0686990
2975.98, 0.0687430
2977.69, 0.0690050
2979.4, 0.0692250
2981.11, 0.0693120
2982.83, 0.0694440
2984.54, 0.0694000
2986.26, 0.0694000
2987.98, 0.0696190
2989.71, 0.0697060
2991.43, 0.0698380
2993.16, 0.0698380
2994.89, 0.0697500
2996.62, 0.0699690
2998.35, 0.0702320
3000.09, 0.0704510
3001.83, 0.0706270
3003.57, 0.0707580
3005.31, 0.0707140
3007.05, 0.0705390
3008.79, 0.0704950
3010.54, 0.0707140
3012.29, 0.0707140
3014.04, 0.0706700
3015.8, 0.0704950
3017.55, 0.0704950
3019.31, 0.0705390
3021.07, 0.0705390
3022.83, 0.0704950
3024.59, 0.0705390
3026.36, 0.0704510
3028.13, 0.0703640
3029.9, 0.0704070
3031.67, 0.0704070
3033.44, 0.0704070
3035.22, 0.0704070
3037.0, 0.0704950
3038.78, 0.0704950
3040.56, 0.0704950
3042.34, 0.0705390
3044.13, 0.0705390
3045.92, 0.0706270
3047.71, 0.0706270
3049.5, 0.0704950
3051.3, 0.0704950
3053.09, 0.0705390
3054.89, 0.0707140
3056.69, 0.0707580
3058.5, 0.0708020
3060.3, 0.0708890
3062.11, 0.0710210
3063.92, 0.0711520
3065.73, 0.0714150
3067.55, 0.0715470
3069.36, 0.0716340
3071.18, 0.0717220
3073.0, 0.0717660
3074.82, 0.0718970
3076.65, 0.0720720
3078.48, 0.0722480
3080.31, 0.0723790
3082.14, 0.0725980
3083.97, 0.0728610
3085.8, 0.0730800
3087.64, 0.0732550
3089.48, 0.0734740
3091.33, 0.0736500
3093.17, 0.0738250
3095.02, 0.0740440
3096.87, 0.0741750
3098.72, 0.0743940
3100.57, 0.0747450
3102.43, 0.0750520
3104.28, 0.0754020
3106.14, 0.0757090
3108.01, 0.0759720
3109.87, 0.0761470
3111.74, 0.0764540
3113.61, 0.0768040
3115.48, 0.0771980
3117.35, 0.0776370
3119.23, 0.0779430
3121.1, 0.0781190
3122.98, 0.0783380
3124.87, 0.0786440
3126.75, 0.0790820
3128.64, 0.0795210
3130.53, 0.0798270
3132.42, 0.0800460
3134.31, 0.0803090
3136.21, 0.0807040
3138.11, 0.0810980
3140.01, 0.0814480
3141.91, 0.0817550
3143.82, 0.0820180
3145.73, 0.0821930
3147.64, 0.0825440
3149.55, 0.0828500
3151.46, 0.0831570
3153.38, 0.0834640
3155.3, 0.0838580
3157.22, 0.0840770
3159.14, 0.0842960
3161.07, 0.0846030
3163.0, 0.0849530
3164.93, 0.0852600
3166.86, 0.0856980
3168.8, 0.0861360
3170.74, 0.0863550
3172.68, 0.0866180
3174.62, 0.0869690
3176.56, 0.0871880
3178.51, 0.0874510
3180.46, 0.0877140
3182.42, 0.0880200
3184.37, 0.0883270
3186.33, 0.0886770
3188.29, 0.0889840
3190.25, 0.0891160
3192.21, 0.0892470
3194.18, 0.0895540
3196.15, 0.0898170
3198.12, 0.0900800
3200.09, 0.0904300
3202.07, 0.0906490
3204.05, 0.0908240
3206.03, 0.0910000
3208.02, 0.0912620
3210.0, 0.0914820
3211.99, 0.0916570
3213.98, 0.0917440
3215.98, 0.0918320
3217.97, 0.0920070
3219.97, 0.0921830
3221.97, 0.0924020
3223.98, 0.0926640
3225.98, 0.0927520
3227.99, 0.0927960
3230.0, 0.0929710
3232.02, 0.0930150
3234.03, 0.0930150
3236.05, 0.0930150
3238.07, 0.0930590
3240.1, 0.0930590
3242.12, 0.0929710
3244.15, 0.0929270
3246.18, 0.0929270
3248.22, 0.0929270
3250.25, 0.0929710
3252.29, 0.0929710
3254.33, 0.0927520
3256.38, 0.0926210
3258.43, 0.0926640
3260.47, 0.0925770
3262.53, 0.0925770
3264.58, 0.0924890
3266.64, 0.0924890
3268.7, 0.0924450
3270.76, 0.0923580
3272.82, 0.0921830
3274.89, 0.0920510
3276.96, 0.0920510
3279.04, 0.0921390
3281.11, 0.0920950
3283.19, 0.0919200
3285.27, 0.0919200
3287.35, 0.0918320
3289.44, 0.0915690
3291.53, 0.0913060
3293.62, 0.0910870
3295.71, 0.0908680
3297.81, 0.0906490
3299.91, 0.0903860
3302.01, 0.0899920
3304.11, 0.0895540
3306.22, 0.0890280
3308.33, 0.0883710
3310.44, 0.0876260
3312.56, 0.0869250
3314.68, 0.0862240
3316.8, 0.0855670
3318.92, 0.0850410
3321.05, 0.0846030
3323.18, 0.0841650
3325.31, 0.0839020
3327.44, 0.0837700
3329.58, 0.0836830
3331.72, 0.0835950
3333.86, 0.0835080
3336.01, 0.0835950
3338.16, 0.0837700
3340.31, 0.0839890
3342.46, 0.0842520
3344.61, 0.0844280
3346.77, 0.0845590
3348.94, 0.0847340
3351.1, 0.0850410
3353.27, 0.0853040
3355.44, 0.0853920
3357.61, 0.0856110
3359.79, 0.0857860
3361.97, 0.0860050
3364.15, 0.0862240
3366.33, 0.0863990
3368.52, 0.0866620
3370.71, 0.0869250
3372.9, 0.0871440
3375.1, 0.0873190
3377.3, 0.0876700
3379.5, 0.0879760
3381.71, 0.0881520
3383.91, 0.0884150
3386.12, 0.0888090
3388.34, 0.0891590
3390.55, 0.0895100
3392.77, 0.0898600
3394.99, 0.0901670
3397.22, 0.0903860
3399.45, 0.0905610
3401.68, 0.0907810
3403.91, 0.0910000
3406.15, 0.0911310
3408.39, 0.0913060
3410.63, 0.0915690
3412.87, 0.0917440
3415.12, 0.0917440
3417.37, 0.0917880
3419.63, 0.0919200
3421.88, 0.0919200
3424.14, 0.0919630
3426.41, 0.0921390
3428.67, 0.0920950
3430.94, 0.0920510
3433.21, 0.0920510
3435.49, 0.0921390
3437.77, 0.0921390
3440.05, 0.0920510
3442.33, 0.0919630
3444.62, 0.0919200
3446.91, 0.0918320
3449.2, 0.0917440
3451.5, 0.0917010
3453.8, 0.0916570
3456.1, 0.0915690
3458.41, 0.0914820
3460.72, 0.0913060
3463.03, 0.0912190
3465.34, 0.0913060
3467.66, 0.0913060
3469.98, 0.0913940
3472.31, 0.0914820
3474.63, 0.0915250
3476.96, 0.0915250
3479.3, 0.0916130
3481.64, 0.0917440
3483.97, 0.0920070
3486.32, 0.0922260
3488.66, 0.0924020
3491.01, 0.0925770
3493.36, 0.0927960
3495.72, 0.0931030
3498.08, 0.0933650
3500.44, 0.0936280
3502.81, 0.0939350
3505.18, 0.0941980
3507.55, 0.0944610
3509.92, 0.0947670
3512.3, 0.0952930
3514.68, 0.0958190
3517.06, 0.0962130
3519.45, 0.0965640
3521.84, 0.0971330
3524.24, 0.0977910
3526.64, 0.0985350
3529.04, 0.0993240
3531.44, 0.0999810
3533.85, 0.100682
3536.26, 0.101646
3538.67, 0.102522
3541.09, 0.103355
3543.51, 0.104100
3545.93, 0.104888
3548.36, 0.105721
3550.79, 0.106466
3553.22, 0.107254
3555.66, 0.107955
3558.1, 0.108569
3560.54, 0.109138
3562.99, 0.109708
3565.44, 0.110277
3567.9, 0.110803
3570.35, 0.111416
3572.81, 0.111986
3575.28, 0.112468
3577.75, 0.112906
3580.22, 0.113519
3582.69, 0.114045
3585.17, 0.114527
3587.65, 0.115009
3590.14, 0.115491
3592.62, 0.115842
3595.11, 0.116192
3597.61, 0.116586
3600.11, 0.116981
3602.61, 0.117331
3605.11, 0.117638
3607.62, 0.117945
3610.14, 0.118295
3612.65, 0.118558
3615.17, 0.118733
3617.69, 0.118996
3620.22, 0.119128
3622.75, 0.119303
3625.28, 0.119609
3627.82, 0.119741
3630.36, 0.119916
3632.9, 0.120179
3635.45, 0.120354
3638.0, 0.120530
3640.56, 0.120705
3643.12, 0.120880
3645.68, 0.120924
3648.24, 0.121055
3650.81, 0.121231
3653.39, 0.121362
3655.96, 0.121537
3658.54, 0.121581
3661.13, 0.121625
3663.71, 0.121756
3666.3, 0.121888
3668.9, 0.121932
3671.5, 0.122063
3674.1, 0.122107
3676.7, 0.122194
3679.31, 0.122238
3681.93, 0.122282
3684.54, 0.122326
3687.17, 0.122370
3689.79, 0.122413
3692.42, 0.122457
3695.05, 0.122413
3697.69, 0.122370
3700.32, 0.122326
3702.97, 0.122370
3705.61, 0.122326
3708.27, 0.122282
3710.92, 0.122282
3713.58, 0.122238
3716.24, 0.122151
3718.91, 0.122063
3721.58, 0.121932
3724.25, 0.121844
3726.93, 0.121844
3729.61, 0.121844
3732.29, 0.121756
3734.98, 0.121625
3737.67, 0.121450
3740.37, 0.121318
3743.07, 0.121099
3745.78, 0.120968
3748.49, 0.120749
3751.2, 0.120486
3753.91, 0.120179
3756.63, 0.119916
3759.36, 0.119478
3762.09, 0.118908
3764.82, 0.118120
3767.55, 0.117331
3770.29, 0.116499
3773.04, 0.115579
3775.78, 0.114527
3778.54, 0.113476
3781.29, 0.112643
3784.05, 0.111811
3786.82, 0.110978
3789.59, 0.110233
3792.36, 0.109576
3795.13, 0.108919
3797.92, 0.108306
3800.7, 0.107692
3803.49, 0.107035
3806.28, 0.106509
3809.08, 0.106027
3811.88, 0.105677
3814.68, 0.105283
3817.49, 0.104888
3820.31, 0.104625
3823.12, 0.104406
3825.94, 0.104363
3828.77, 0.104363
3831.6, 0.104275
3834.43, 0.104231
3837.27, 0.104231
3840.11, 0.104494
3842.96, 0.104844
3845.81, 0.105239
3848.67, 0.105589
3851.53, 0.105984
3854.39, 0.106466
3857.26, 0.106816
3860.13, 0.106991
3863.01, 0.107123
3865.89, 0.107035
3868.77, 0.106904
3871.66, 0.106466
3874.55, 0.105940
3877.45, 0.105502
3880.35, 0.105064
3883.26, 0.104582
3886.17, 0.104143
3889.09, 0.103881
3892.01, 0.103662
3894.93, 0.103442
3897.86, 0.103223
3900.79, 0.103004
3903.73, 0.102785
3906.67, 0.102610
3909.62, 0.102435
3912.57, 0.102303
3915.52, 0.102084
3918.48, 0.101821
3921.45, 0.101602
3924.42, 0.101339
3927.39, 0.101033
3930.37, 0.100726
3933.35, 0.100507
3936.34, 0.100244
3939.33, 0.0999370
3942.32, 0.0996750
3945.32, 0.0994120
3948.33, 0.0990170
3951.34, 0.0986230
3954.35, 0.0983600
3957.37, 0.0981410
3960.39, 0.0979660
3963.42, 0.0977910
3966.45, 0.0974840
3969.49, 0.0973090
3972.53, 0.0972210
3975.58, 0.0971330
3978.63, 0.0970460
3981.68, 0.0970460
3984.75, 0.0970460
3987.81, 0.0971770
3990.88, 0.0974400
3993.95, 0.0976150
3997.03, 0.0978340
4000.12, 0.0981850
4003.21, 0.0986670
4006.3, 0.0992360
4009.4, 0.0998940
4012.5, 0.100551
4015.61, 0.101208
4018.72, 0.101953
4021.84, 0.102698
4024.96, 0.103442
4028.09, 0.104187
4031.22, 0.104932
4034.36, 0.105677
4037.5, 0.106466
4040.65, 0.107254
4043.8, 0.108043
4046.96, 0.108831
4050.12, 0.109620
4053.29, 0.110453
4056.46, 0.111197
4059.64, 0.111855
4062.82, 0.112556
4066.0, 0.113169
4069.19, 0.113782
4072.39, 0.114220
4075.59, 0.114702
4078.8, 0.115272
4082.01, 0.115885
4085.23, 0.116323
4088.45, 0.116718
4091.68, 0.117112
4094.91, 0.117506
4098.15, 0.117901
4101.39, 0.118295
4104.63, 0.118646
4107.89, 0.118952
4111.14, 0.119215
4114.41, 0.119566
4117.67, 0.119829
4120.95, 0.119960
4124.23, 0.120179
4127.51, 0.120398
4130.8, 0.120573
4134.09, 0.120705
4137.39, 0.120792
4140.7, 0.120924
4144.01, 0.121143
4147.32, 0.121231
4150.64, 0.121274
4153.97, 0.121318
4157.3, 0.121493
4160.64, 0.121581
4163.98, 0.121537
4167.33, 0.121581
4170.68, 0.121756
4174.04, 0.121800
4177.4, 0.121888
4180.77, 0.121975
4184.14, 0.121975
4187.52, 0.122063
4190.91, 0.122107
4194.3, 0.122238
4197.69, 0.122457
4201.1, 0.122589
4204.5, 0.122589
4207.92, 0.122633
4211.34, 0.122852
4214.76, 0.123027
4218.19, 0.123158
4221.62, 0.123334
4225.06, 0.123465
4228.51, 0.123509
4231.96, 0.123465
4235.42, 0.123421
4238.88, 0.123334
4242.35, 0.123202
4245.83, 0.123071
4249.31, 0.122939
4252.79, 0.122676
4256.28, 0.122501
4259.78, 0.122413
4263.29, 0.122545
4266.79, 0.122676
4270.31, 0.122808
4273.83, 0.122764
4277.35, 0.122895
4280.89, 0.122983
4284.42, 0.122939
4287.97, 0.122808
4291.52, 0.122720
4295.07, 0.122676
4298.63, 0.122633
4302.2, 0.122457
4305.78, 0.122370
4309.35, 0.122370
4312.94, 0.122326
4316.53, 0.122194
4320.13, 0.122151
4323.73, 0.122063
4327.34, 0.121975
4330.96, 0.121932
4334.58, 0.121932
4338.21, 0.121888
4341.84, 0.121888
4345.48, 0.121888
4349.12, 0.121932
4352.77, 0.121800
4356.43, 0.121756
4360.1, 0.121669
4363.76, 0.121669
4367.44, 0.121669
4371.12, 0.121625
4374.81, 0.121493
4378.51, 0.121362
4382.21, 0.121231
4385.92, 0.121143
4389.63, 0.120968
4393.35, 0.120705
4397.08, 0.120530
4400.81, 0.120354
4404.55, 0.120135
4408.29, 0.119872
4412.04, 0.119609
4415.8, 0.119434
4419.57, 0.119215
4423.34, 0.118952
4427.12, 0.118646
4430.9, 0.118339
4434.69, 0.118032
4438.49, 0.117769
4442.29, 0.117463
4446.1, 0.117287
4449.92, 0.117024
4453.74, 0.116718
4457.57, 0.116411
4461.41, 0.116236
4465.25, 0.116104
4469.1, 0.116061
4472.95, 0.116061
4476.82, 0.116017
4480.69, 0.116061
4484.56, 0.116104
4488.44, 0.116192
4492.33, 0.116367
4496.23, 0.116499
4500.13, 0.116674
4504.04, 0.116805
4507.96, 0.116893
4511.88, 0.117024
4515.81, 0.117024
4519.75, 0.116937
4523.69, 0.116849
4527.65, 0.116630
4531.6, 0.116455
4535.57, 0.116236
4539.54, 0.116061
4543.52, 0.115798
4547.5, 0.115491
4551.5, 0.115184
4555.5, 0.114921
4559.5, 0.114615
4563.52, 0.114220
4567.54, 0.113826
4571.56, 0.113519
4575.6, 0.113169
4579.64, 0.112818
4583.69, 0.112336
4587.75, 0.111898
4591.81, 0.111416
4595.88, 0.111022
4599.96, 0.110628
4604.04, 0.110058
4608.14, 0.109532
4612.24, 0.109094
4616.34, 0.108481
4620.46, 0.107868
4624.58, 0.107298
4628.71, 0.106860
4632.84, 0.106422
4636.99, 0.105808
4641.14, 0.105326
4645.3, 0.104932
4649.47, 0.104625
4653.64, 0.104363
4657.82, 0.104100
4662.01, 0.103837
4666.21, 0.103530
4670.41, 0.103311
4674.62, 0.103223
4678.84, 0.103136
4683.07, 0.103180
4687.3, 0.103355
4691.54, 0.103662
4695.79, 0.103837
4700.05, 0.104012
4704.31, 0.104275
4708.59, 0.104538
4712.87, 0.104669
4717.15, 0.104801
4721.45, 0.104844
4725.76, 0.104844
4730.07, 0.104801
4734.39, 0.104713
4738.72, 0.104582
4743.05, 0.104363
4747.39, 0.104143
4751.75, 0.103881
4756.1, 0.103618
4760.47, 0.103355
4764.85, 0.103048
4769.23, 0.102741
4773.62, 0.102303
4778.02, 0.101953
4782.43, 0.101646
4786.85, 0.101208
4791.27, 0.100814
4795.7, 0.100419
4800.14, 0.100025
4804.59, 0.0996310
4809.05, 0.0992360
4813.51, 0.0989300
4817.99, 0.0985350
4822.47, 0.0979660
4826.96, 0.0975720
4831.46, 0.0972650
4835.96, 0.0968710
4840.48, 0.0963450
4845.0, 0.0959070
4849.54, 0.0954250
4854.08, 0.0949870
4858.63, 0.0945480
4863.18, 0.0941100
4867.75, 0.0935410
4872.33, 0.0930150
4876.91, 0.0924020
4881.5, 0.0917010
4886.1, 0.0910000
4890.71, 0.0903420
4895.33, 0.0896410
4899.96, 0.0888970
4904.59, 0.0880640
4909.24, 0.0873630
4913.89, 0.0867060
4918.55, 0.0860490
4923.22, 0.0853920
4927.9, 0.0848220
4932.59, 0.0843840
4937.29, 0.0839890
4942.0, 0.0835950
4946.71, 0.0831130
4951.44, 0.0826750
4956.17, 0.0822810
4960.91, 0.0817110
4965.67, 0.0810980
4970.43, 0.0805280
4975.2, 0.0800460
4979.98, 0.0794770
4984.76, 0.0790390
4989.56, 0.0786880
4994.37, 0.0784690
4999.18, 0.0782500
5004.01, 0.0779870
5008.84, 0.0778120
5013.69, 0.0777680
5018.54, 0.0777240
5023.4, 0.0776370
5028.28, 0.0774610
5033.16, 0.0772420
5038.05, 0.0771110
5042.95, 0.0769790
5047.86, 0.0768480
5052.78, 0.0766730
5057.71, 0.0764100
5062.65, 0.0761470
5067.6, 0.0758840
5072.56, 0.0756210
5077.53, 0.0753150
5082.5, 0.0750950
5087.49, 0.0748330
5092.49, 0.0745700
5097.5, 0.0745260
5102.51, 0.0744820
5107.54, 0.0743940
5112.58, 0.0743070
5117.62, 0.0741320
5122.68, 0.0739560
5127.75, 0.0737810
5132.82, 0.0736060
5137.91, 0.0734740
5143.01, 0.0733430
5148.12, 0.0732990
5153.23, 0.0729920
5158.36, 0.0726420
5163.5, 0.0722910
5168.65, 0.0719850
5173.81, 0.0716780
5178.98, 0.0712840
5184.15, 0.0708890
5189.34, 0.0704510
5194.54, 0.0701010
5199.75, 0.0697940
5204.98, 0.0693120
5210.21, 0.0690050
5215.45, 0.0685670
5220.7, 0.0677350
5225.96, 0.0670340
5231.23, 0.0663770
5236.52, 0.0658070
5241.81, 0.0651060
5247.12, 0.0644490
5252.44, 0.0637480
5257.76, 0.0629590
5263.1, 0.0622580
5268.45, 0.0616450
5273.81, 0.0610750
5279.18, 0.0604620
5284.56, 0.0598920
5289.95, 0.0594980
5295.36, 0.0589280
5300.77, 0.0584030
5306.2, 0.0580080
5311.63, 0.0575700
5317.08, 0.0571320
5322.54, 0.0567380
5328.01, 0.0563430
5333.49, 0.0559930
5338.98, 0.0556420
5344.49, 0.0554670
5350.0, 0.0554230
5355.53, 0.0549410
5361.07, 0.0544160
5366.62, 0.0541530
5372.18, 0.0540210
5377.75, 0.0538900
5383.34, 0.0537150
5388.93, 0.0535830
5394.54, 0.0533640
5400.16, 0.0531890
5405.79, 0.0529700
5411.44, 0.0527070
5417.09, 0.0526190
5422.76, 0.0524440
5428.43, 0.0515240
5434.12, 0.0507350
5439.83, 0.0502100
5445.54, 0.0495960
5451.26, 0.0488950
5457.0, 0.0482380
5462.75, 0.0477560
5468.52, 0.0468800
5474.29, 0.0460040
5480.08, 0.0452150
5485.88, 0.0442510
5491.69, 0.0434620
5497.51, 0.0428050
5503.35, 0.0421920
5509.2, 0.0416660
5515.06, 0.0412280
5520.93, 0.0408340
5526.82, 0.0404390
5532.71, 0.0400890
5538.63, 0.0398700
5544.55, 0.0398700
5550.49, 0.0399570
5556.44, 0.0399570
5562.4, 0.0398700
5568.37, 0.0399570
5574.36, 0.0402200
5580.36, 0.0404830
5586.37, 0.0402640
5592.4, 0.0401330
5598.44, 0.0401330
5604.49, 0.0401330
5610.56, 0.0401330
5616.63, 0.0401330
5622.73, 0.0400450
5628.83, 0.0400890
5634.95, 0.0403520
5641.08, 0.0409210
5647.23, 0.0408780
5653.39, 0.0407460
5659.56, 0.0407460
5665.74, 0.0407900
5671.94, 0.0410970
5678.15, 0.0411840
5684.38, 0.0410970
5690.62, 0.0412280
5696.87, 0.0410970
5703.14, 0.0411400
5709.42, 0.0414910
5715.72, 0.0414910
5722.03, 0.0412720
5728.35, 0.0410090
5734.69, 0.0410090
5741.03, 0.0411400
5747.4, 0.0412280
5753.78, 0.0409210
5760.17, 0.0412280
5766.58, 0.0417980
5773.0, 0.0412280
5779.44, 0.0408340
5785.88, 0.0407020
5792.35, 0.0406580
5798.83, 0.0407020
5805.32, 0.0407020
5811.83, 0.0409210
5818.35, 0.0415790
5824.89, 0.0417100
5831.45, 0.0411840
5838.01, 0.0407460
5844.59, 0.0406150
5851.19, 0.0406580
5857.8, 0.0407900
5864.43, 0.0408340
5871.07, 0.0407460
5877.73, 0.0415350
5884.4, 0.0414030
5891.09, 0.0409210
5897.79, 0.0409650
5904.5, 0.0400450
5911.23, 0.0396510
5917.98, 0.0395190
5924.75, 0.0393880
5931.53, 0.0399140
5938.32, 0.0402640
5945.13, 0.0393000
5951.96, 0.0387740
5958.8, 0.0385550
5965.65, 0.0388180
5972.53, 0.0385550
5979.42, 0.0380730
5986.32, 0.0380300
5993.24, 0.0376350
6000.18, 0.0369340
6007.13, 0.0366710
6014.1, 0.0366280
6021.08, 0.0361900
6028.09, 0.0358830
6035.1, 0.0357950
6042.14, 0.0364520
6049.19, 0.0372410
6056.25, 0.0361020
6063.34, 0.0354890
6070.44, 0.0357510
6077.55, 0.0355760
6084.69, 0.0350500
6091.84, 0.0347880
6099.0, 0.0345680
6106.19, 0.0347880
6113.39, 0.0351820
6120.61, 0.0347440
6127.84, 0.0342620
6135.09, 0.0342180
6142.36, 0.0344810
6149.65, 0.0345680
6156.95, 0.0348310
6164.27, 0.0350070
6171.61, 0.0350500
6178.97, 0.0356640
6186.34, 0.0362770
6193.73, 0.0361900
6201.14, 0.0362770
6208.57, 0.0367150
6216.01, 0.0371970
6223.47, 0.0375480
6230.95, 0.0379860
6238.45, 0.0385120
6245.97, 0.0389940
6253.5, 0.0395630
6261.06, 0.0403080
6268.63, 0.0410970
6276.21, 0.0418410
6283.82, 0.0426740
6291.45, 0.0436380
6299.1, 0.0446890
6306.76, 0.0457850
6314.44, 0.0469240
6322.14, 0.0481070
6329.86, 0.0493770
6337.6, 0.0513490
6345.35, 0.0533200
6353.13, 0.0539340
6360.92, 0.0552040
6368.74, 0.0571760
6376.57, 0.0584470
6384.43, 0.0598050
6392.3, 0.0616450
6400.19, 0.0637040
6408.1, 0.0672090
6416.03, 0.0693560
6423.98, 0.0683920
6431.95, 0.0681290
6439.94, 0.0680420
6447.95, 0.0680850
6455.98, 0.0681730
6464.03, 0.0682170
6472.1, 0.0686550
6480.19, 0.0692250
6488.31, 0.0701880
6496.44, 0.0696630
6504.59, 0.0675600
6512.76, 0.0667710
6520.95, 0.0667710
6529.16, 0.0657190
6537.4, 0.0650620
6545.65, 0.0648870
6553.92, 0.0647560
6562.22, 0.0646240
6570.54, 0.0649310
6578.88, 0.0640110
6587.23, 0.0631350
6595.61, 0.0623900
6604.02, 0.0615130
6612.44, 0.0611190
6620.89, 0.0609000
6629.35, 0.0615570
6637.84, 0.0617760
6646.35, 0.0598490
6654.88, 0.0583590
6663.44, 0.0579210
6672.01, 0.0577460
6680.61, 0.0573510
6689.23, 0.0563000
6697.88, 0.0553800
6706.54, 0.0550730
6715.23, 0.0545910
6723.94, 0.0537590
6732.67, 0.0529260
6741.42, 0.0523570
6750.2, 0.0520940
6759.0, 0.0516560
6767.82, 0.0514360
6776.67, 0.0513050
6785.54, 0.0513930
6794.44, 0.0509110
6803.35, 0.0498590
6812.29, 0.0493770
6821.26, 0.0494210
6830.24, 0.0491580
6839.25, 0.0484570
6848.29, 0.0483700
6857.35, 0.0488950
6866.43, 0.0485450
6875.54, 0.0471870
6884.67, 0.0465290
6893.82, 0.0461350
6903.0, 0.0458720
6912.2, 0.0454340
6921.43, 0.0449080
6930.69, 0.0444700
6939.96, 0.0441200
6949.27, 0.0440760
6958.59, 0.0443830
6967.95, 0.0439880
6977.33, 0.0435060
6986.73, 0.0435060
6996.16, 0.0435940
7005.61, 0.0436820
7015.09, 0.0439880
7024.6, 0.0442510
7034.13, 0.0446020
7043.69, 0.0452590
7053.27, 0.0453900
7062.88, 0.0452590
7072.52, 0.0454340
7082.18, 0.0456970
7091.87, 0.0457850
7101.58, 0.0457850
7111.32, 0.0456530
7121.09, 0.0452590
7130.88, 0.0446450
7140.71, 0.0442070
7150.56, 0.0435940
7160.43, 0.0428930
7170.33, 0.0421920
7180.27, 0.0412720
7190.23, 0.0405270
7200.21, 0.0401330
7210.23, 0.0396510
7220.27, 0.0390370
7230.34, 0.0387310
7240.44, 0.0384240
7250.56, 0.0380730
7260.72, 0.0378980
7270.9, 0.0378540
7281.12, 0.0376350
7291.36, 0.0372850
7301.63, 0.0371100
7311.93, 0.0370220
7322.25, 0.0369340
7332.61, 0.0368910
7343.0, 0.0367150
7353.41, 0.0364520
7363.86, 0.0362330
7374.33, 0.0360580
7384.83, 0.0358390
7395.37, 0.0357080
7405.93, 0.0355760
7416.53, 0.0354450
7427.15, 0.0352690
7437.81, 0.0351820
7448.5, 0.0350940
7459.22, 0.0350940
7469.96, 0.0349190
7480.74, 0.0346560
7491.55, 0.0344370
7502.39, 0.0341740
7513.27, 0.0339110
7524.17, 0.0337360
7535.11, 0.0336920
7546.08, 0.0335610
7557.08, 0.0333420
7568.11, 0.0331660
7579.17, 0.0329910
7590.27, 0.0327720
7601.4, 0.0325970
7612.56, 0.0324650
7623.76, 0.0322460
7634.98, 0.0320710
7646.24, 0.0319830
7657.54, 0.0319400
7668.87, 0.0319400
7680.23, 0.0318960
7691.62, 0.0317640
7703.05, 0.0315890
7714.51, 0.0315020
7726.01, 0.0314580
7737.54, 0.0314140
7749.11, 0.0314140
7760.71, 0.0313700
7772.35, 0.0312390
7784.02, 0.0311070
7795.72, 0.0310200
7807.46, 0.0310200
7819.23, 0.0310200
7831.04, 0.0309760
7842.89, 0.0309320
7854.77, 0.0309760
7866.69, 0.0310200
7878.65, 0.0309760
7890.64, 0.0311070
7902.67, 0.0313260
7914.74, 0.0314580
7926.84, 0.0316330
7938.98, 0.0317210
7951.16, 0.0318520
7963.37, 0.0319830
7975.62, 0.0321590
7987.91, 0.0322900
8000.24, 0.0324220
8012.6, 0.0325530
8025.01, 0.0326840
8037.45, 0.0328600
8049.93, 0.0330350
8062.45, 0.0332540
8075.01, 0.0334730
8087.61, 0.0336920
8100.24, 0.0338670
8112.91, 0.0340860
8125.63, 0.0343490
8138.39, 0.0346120
8151.18, 0.0348750
8164.02, 0.0350500
8176.9, 0.0351820
8189.81, 0.0351820
8202.77, 0.0351380
8215.77, 0.0350500
8228.82, 0.0350070
8241.9, 0.0348750
8255.02, 0.0346560
8268.19, 0.0343930
8281.39, 0.0341740
8294.65, 0.0339990
8307.94, 0.0338670
8321.28, 0.0337800
8334.66, 0.0336480
8348.08, 0.0335610
8361.54, 0.0335610
8375.05, 0.0335170
8388.6, 0.0336050
8402.2, 0.0335610
8415.84, 0.0336480
8429.52, 0.0338240
8443.25, 0.0340860
8457.02, 0.0344370
8470.84, 0.0348750
8484.7, 0.0353130
8498.61, 0.0358830
8512.57, 0.0366280
8526.57, 0.0374160
8540.62, 0.0383360
8554.71, 0.0394760
8568.85, 0.0405710
8583.04, 0.0416220
8597.27, 0.0425420
8611.55, 0.0433750
8625.88, 0.0447770
8640.26, 0.0470990
8654.68, 0.0498150
8669.16, 0.0520060
8683.68, 0.0535830
8698.25, 0.0548540
8712.87, 0.0558620
8727.53, 0.0565630
8742.25, 0.0570880
8757.02, 0.0575700
8771.83, 0.0578770
8786.7, 0.0582270
8801.62, 0.0585780
8816.59, 0.0587530
8831.61, 0.0587970
8846.68, 0.0587970
8861.8, 0.0589280
8876.97, 0.0591040
8892.2, 0.0592790
8907.48, 0.0594100
8922.81, 0.0597170
8938.2, 0.0602870
8953.63, 0.0609000
8969.13, 0.0617320
8984.67, 0.0629150
9000.27, 0.0645370
9015.92, 0.0664640
9031.63, 0.0688740
9047.39, 0.0713280
9063.21, 0.0735180
9079.08, 0.0752270
9095.01, 0.0767170
9111.0, 0.0781620
9127.04, 0.0792140
9143.13, 0.0800460
9159.28, 0.0805720
9175.49, 0.0806600
9191.76, 0.0803530
9208.09, 0.0795210
9224.47, 0.0783810
9240.92, 0.0771550
9257.42, 0.0761910
9273.98, 0.0761470
9290.6, 0.0775050
9307.28, 0.0802650
9324.02, 0.0836390
9340.82, 0.0870560
9357.68, 0.0899920
9374.6, 0.0924450
9391.58, 0.0944610
9408.62, 0.0961700
9425.73, 0.0977030
9442.9, 0.0990610
9460.13, 0.100332
9477.42, 0.101471
9494.78, 0.102303
9512.2, 0.103048
9529.69, 0.103837
9547.24, 0.104976
9564.86, 0.106027
9582.54, 0.106816
9600.28, 0.107517
9618.1, 0.108350
9635.97, 0.109138
9653.92, 0.109795
9671.93, 0.110496
9690.01, 0.111373
9708.16, 0.112161
9726.37, 0.113038
9744.65, 0.113870
9763.0, 0.114571
9781.43, 0.115184
9799.92, 0.115929
9818.48, 0.116586
9837.1, 0.117200
9855.8, 0.117463
9874.58, 0.117594
9893.42, 0.117419
9912.34, 0.116893
9931.33, 0.115973
9950.39, 0.114615
9969.52, 0.112775
9988.74, 0.110934
10008.0, 0.108875
10027.4, 0.106203
10046.8, 0.103136
10066.3, 0.100200
10085.9, 0.0974400
10105.6, 0.0949430
10125.3, 0.0928840
10145.1, 0.0913060
10165.0, 0.0900360
10185.0, 0.0891160
10205.0, 0.0882390
10225.2, 0.0874510
10245.4, 0.0868370
10265.7, 0.0863550
10286.0, 0.0857420
10306.5, 0.0851720
10327.0, 0.0846470
10347.6, 0.0838140
10368.3, 0.0828070
10389.1, 0.0816670
10409.9, 0.0802220
10430.9, 0.0783380
10451.9, 0.0760160
10473.0, 0.0733430
10494.2, 0.0704510
10515.5, 0.0675160
10536.9, 0.0647560
10558.4, 0.0622140
10579.9, 0.0597170
10601.5, 0.0573950
10623.3, 0.0552480
10645.1, 0.0534080
10667.0, 0.0516990
10689.0, 0.0500780
10711.1, 0.0486760
10733.2, 0.0474490
10755.5, 0.0464860
10777.9, 0.0460040
10800.3, 0.0458280
10822.9, 0.0458280
10845.5, 0.0462670
10868.2, 0.0469240
10891.1, 0.0475810
10914.0, 0.0482380
10937.0, 0.0486320
10960.2, 0.0488510
10983.4, 0.0490710
11006.7, 0.0491140
11030.1, 0.0492020
11053.6, 0.0494210
11077.3, 0.0495090
11101.0, 0.0493770
11124.8, 0.0492460
11148.7, 0.0493330
11172.7, 0.0494650
11196.9, 0.0499910
11221.1, 0.0509550
11245.4, 0.0514800
11269.9, 0.0514360
11294.4, 0.0511740
11319.1, 0.0507350
11343.9, 0.0502970
11368.8, 0.0498590
11393.7, 0.0494650
11418.8, 0.0488950
11444.0, 0.0481500
11469.4, 0.0475370
11494.8, 0.0468800
11520.3, 0.0459600
11546.0, 0.0449080
11571.8, 0.0437690
11597.7, 0.0425860
11623.7, 0.0413590
11649.8, 0.0402200
11676.0, 0.0394320
11702.4, 0.0387740
11728.9, 0.0379860
11755.5, 0.0371970
11782.2, 0.0364520
11809.0, 0.0357080
11836.0, 0.0351380
11863.0, 0.0348310
11890.3, 0.0346120
11917.6, 0.0342620
11945.0, 0.0340860
11972.6, 0.0339110
12000.4, 0.0335170
12028.2, 0.0329040
12056.2, 0.0324220
12084.3, 0.0320270
12112.5, 0.0316770
12140.9, 0.0311950
12169.4, 0.0306690
12198.0, 0.0300560
12226.8, 0.0297050
12255.7, 0.0293990
12284.7, 0.0288730
12313.9, 0.0286100
12343.2, 0.0286980
12372.7, 0.0287410
12402.3, 0.0289600
12432.0, 0.0290920
12461.9, 0.0289170
12491.9, 0.0286540
12522.1, 0.0281720
12552.4, 0.0272950
12582.9, 0.0264630
12613.5, 0.0259370
12644.3, 0.0256740
12675.2, 0.0256310
12706.3, 0.0258060
12737.5, 0.0262880
12768.9, 0.0270330
12800.4, 0.0279960
12832.1, 0.0288290
12863.9, 0.0293110
12895.9, 0.0294860
12928.1, 0.0294420
12960.4, 0.0290920
12992.9, 0.0284350
13025.5, 0.0278650
13058.3, 0.0273390
13091.3, 0.0269890
13124.4, 0.0266380
13157.8, 0.0264630
13191.2, 0.0262000
13224.9, 0.0258500
13258.7, 0.0252800
13292.7, 0.0247980
13326.9, 0.0241850
13361.2, 0.0237900
13395.7, 0.0234840
13430.4, 0.0230890
13465.3, 0.0226510
13500.4, 0.0223450
13535.7, 0.0219060
13571.1, 0.0211180
13606.7, 0.0202420
13642.5, 0.0195840
13678.5, 0.0190590
13714.7, 0.0188400
13751.1, 0.0189270
13787.6, 0.0189710
13824.4, 0.0189270
13861.4, 0.0186640
13898.5, 0.0183580
13935.9, 0.0182700
13973.5, 0.0182260
14011.2, 0.0183140
14049.2, 0.0187520
14087.4, 0.0195840
14125.8, 0.0205920
14164.3, 0.0211180
14203.2, 0.0215120
14242.2, 0.0217750
14281.4, 0.0218630
14320.9, 0.0217310
14360.5, 0.0215120
14400.4, 0.0215120
14440.5, 0.0215120
14480.9, 0.0213370
14521.4, 0.0212490
14562.2, 0.0210740
14603.3, 0.0208110
14644.5, 0.0207240
14686.0, 0.0207240
14727.7, 0.0206360
14769.7, 0.0203290
14811.9, 0.0200660
14854.3, 0.0200230
14897.0, 0.0198910
14939.9, 0.0198030
14983.1, 0.0198470
15026.5, 0.0198470
15070.2, 0.0199350
15114.2, 0.0200660
15158.3, 0.0201540
15202.8, 0.0201540
15247.5, 0.0198470
15292.5, 0.0195410
15337.7, 0.0190590
15383.2, 0.0185330
15429.0, 0.0182700
15475.1, 0.0180070
15521.4, 0.0178760
15568.0, 0.0175690
15614.9, 0.0175250
15662.1, 0.0174380
15709.6, 0.0173500
15757.3, 0.0173940
15805.4, 0.0174380
15853.7, 0.0174380
15902.3, 0.0173500
15951.2, 0.0170870
16000.5, 0.0167800
16050.0, 0.0166930
16099.8, 0.0166050
16150.0, 0.0166050
16200.5, 0.0166930
16251.3, 0.0167800
16302.4, 0.0170870
16353.8, 0.0174810
16405.5, 0.0180950
16457.6, 0.0191460
16510.0, 0.0203290
16562.8, 0.0219060
16615.9, 0.0241850
16669.3, 0.0271640
16723.1, 0.0302310
16777.2, 0.0329910
16831.7, 0.0359270
16886.5, 0.0389500
16941.7, 0.0418850
16997.2, 0.0443830
17053.1, 0.0466610
17109.4, 0.0487200
17166.1, 0.0501220
17223.1, 0.0515680
17280.5, 0.0529700
17338.3, 0.0543280
17396.5, 0.0554670
17455.1, 0.0562560
17514.0, 0.0566500
17573.4, 0.0570010
17633.2, 0.0577020
17693.4, 0.0582270
17754.0, 0.0583150
17815.0, 0.0585780
17876.4, 0.0593670
17938.3, 0.0606810
18000.5, 0.0624770
18063.3, 0.0643170
18126.4, 0.0665960
18190.0, 0.0690050
18254.1, 0.0710210
18318.6, 0.0731680
18383.5, 0.0756650
18449.0, 0.0784250
18514.9, 0.0805720
18581.2, 0.0823680
18648.0, 0.0840330
18715.4, 0.0861360
18783.2, 0.0881520
18851.5, 0.0898170
18920.3, 0.0913500
18989.6, 0.0934090
19059.4, 0.0963890
19129.7, 0.100419
19200.6, 0.104625
19272.0, 0.109051
19343.9, 0.113432
19416.3, 0.116805
19489.3, 0.120048
19562.8, 0.123202
19637.0, 0.124911
19711.6, 0.126576
19786.8, 0.128022
19862.6, 0.129161
19939.0, 0.130168
20016.0, 0.130362
20093.6, 0.131927
20171.8, 0.132231
20250.6, 0.133013
20330.0, 0.134181
20410.0, 0.135723
20490.7, 0.136248
20572.0, 0.135909
20654.0, 0.135407
20736.6, 0.135676
20819.9, 0.135571
20903.8, 0.133866
20988.5, 0.133293
21073.8, 0.131448
21159.8, 0.127898
21246.5, 0.124744
21334.0, 0.120797
21422.1, 0.115156
21511.0, 0.110823
21600.7, 0.108604
21691.0, 0.106560
21782.1, 0.103628
21874.0, 0.0994590
21966.7, 0.0947640
22060.2, 0.0935140
22154.5, 0.0935730
22249.6, 0.0930010
22345.5, 0.0927200
22442.2, 0.0910500
22539.8, 0.0895670
22638.2, 0.0899870
22737.5, 0.0917040
22837.7, 0.0943790
22938.7, 0.0958620
23040.7, 0.0982790
23143.5, 0.100884
23247.3, 0.102776
23352.1, 0.104423
23457.7, 0.105252
23564.4, 0.103839
23672.0, 0.100650
23780.5, 0.0971230
23890.1, 0.0943670
24000.7, 0.0914470
24112.3, 0.0893450
24225.0, 0.0888660
24338.7, 0.0870320
24453.5, 0.0849650
24569.4, 0.0840780
24686.4, 0.0836810
24804.5, 0.0839840
24923.8, 0.0860860
25044.2, 0.0875110
25165.8, 0.0879900
25288.6, 0.0881890
25412.5, 0.0869740
25537.7, 0.0846620
25664.1, 0.0823380
25791.8, 0.0811930
25920.8, 0.0803990
26051.1, 0.0793360
26182.6, 0.0784480
26315.5, 0.0772570
26449.8, 0.0769650
26585.4, 0.0769300
26722.5, 0.0764980
26860.9, 0.0762530
27000.8, 0.0758560
27142.1, 0.0761480
27285.0, 0.0760310
27429.4, 0.0752250
27575.3, 0.0740100
27722.7, 0.0726440
27871.8, 0.0709850
28022.4, 0.0703900
28174.7, 0.0713360
28328.7, 0.0723870
28484.4, 0.0742440
28641.7, 0.0748750
28800.9, 0.0751550
28961.8, 0.0763690
29124.5, 0.0764160
29289.0, 0.0757620
29455.4, 0.0759020
29623.8, 0.0760310
29794.0, 0.0758090
29966.3, 0.0766260
30140.5, 0.0772800
30316.7, 0.0771170
30495.1, 0.0772450
30675.5, 0.0772220
30858.1, 0.0775610
31042.8, 0.0777360
31229.8, 0.0768720
31419.1, 0.0771400
31610.7, 0.0774320
31804.6, 0.0769650
32000.9, 0.0763230
32199.7, 0.0758670
32400.9, 0.0751430
32604.8, 0.0734260
32811.1, 0.0715340
33020.1, 0.0702030
33231.8, 0.0707290
33446.2, 0.0707990
33663.4, 0.0693040
33883.4, 0.0678320
34106.3, 0.0678670
34332.1, 0.0683340
34561.0, 0.0685680
34792.9, 0.0693150
35028.0, 0.0696660
35266.3, 0.0689770
35507.8, 0.0678090
35752.7, 0.0677390
36001.0, 0.0676340
36252.8, 0.0672950
36508.1, 0.0671430
36767.0, 0.0671310
37029.7, 0.0668280
37296.1, 0.0660800
37566.3, 0.0665470
37840.5, 0.0674350
38118.8, 0.0660920
38401.2, 0.0641770
38687.8, 0.0642820
38978.6, 0.0645850
39273.9, 0.0640250
39573.7, 0.0643980
39878.1, 0.0643870
40187.3, 0.0637090
40501.2, 0.0637440
40820.0, 0.0630550
41144.0, 0.0626820
41473.2, 0.0620280
41807.6, 0.0624480
42147.5, 0.0624710
42493.0, 0.0603220
42844.2, 0.0604160
43201.2, 0.0609760
43564.3, 0.0602870
43933.5, 0.0602410
44309.0, 0.0616540
44691.0, 0.0626820
45079.6, 0.0636040
45475.0, 0.0664770
45877.5, 0.0677390
46287.1, 0.0667930
46704.2, 0.0664660
47128.7, 0.0673070
47561.1, 0.0667930
48001.5, 0.0642700
48450.1, 0.0612680
48907.2, 0.0631250
49373.0, 0.0637910
49847.7, 0.0649940
50331.5, 0.0666760
50825.0, 0.0663960
51328.2, 0.0659980
51841.5, 0.0665710
52365.1, 0.0677850
52899.4, 0.0673770
53444.8, 0.0676220
54001.5, 0.0693620
54570.1, 0.0676800
55150.6, 0.0664070
55743.6, 0.0677970
56349.5, 0.0690000
56968.7, 0.0684280
57601.7, 0.0677040
58248.9, 0.0672010
58910.9, 0.0651230
59588.1, 0.0633010
60281.0, 0.0647720
60990.2, 0.0661620
61716.3, 0.0649120
62459.8, 0.0633820
63221.6, 0.0624600
64002.1, 0.0600540
64802.1, 0.0591430
65622.1, 0.0595750
66463.4, 0.0595520
67326.6, 0.0608480
68212.4, 0.0592480
69121.9, 0.0567950
70056.0, 0.0571570
71015.7, 0.0615250
72002.0, 0.0686260
73016.3, 0.0763690
74059.4, 0.0790790
75132.7, 0.0778880
76237.6, 0.0776780
77375.5, 0.0768950
78547.9, 0.0768370
79756.3, 0.0774210
81002.5, 0.0767780
82288.5, 0.0742560
83615.7, 0.0733910
84986.5, 0.0753530
86402.9, 0.0799780
87867.4, 0.0818820
89382.4, 0.0790790
90950.5, 0.0766500
92574.6, 0.0760420
94257.2, 0.0755290
96002.7, 0.0791720
97814.1, 0.0776890
99695.1, 0.0760070
101650.0, 0.0775960
103683.0, 0.0736720
105799.0, 0.0702260
108003.0, 0.0733800
110301.0, 0.0783080
112699.0, 0.0794180
115204.0, 0.0783320
117822.0, 0.0790560
120562.0, 0.0832020
123433.0, 0.0783080
126443.0, 0.0763340
129604.0, 0.0781560
132926.0, 0.0805040
136424.0, 0.0829450
140111.0, 0.0867410
144003.0, 0.0866240
148118.0, 0.0875930
152474.0, 0.0790440
157095.0, 0.0828750
162004.0, 0.0964220
167231.0, 0.102963
172805.0, 0.106969
178764.0, 0.113252
185148.0, 0.123775
192005.0, 0.137988
199390.0, 0.157037
207366.0, 0.159431
216006.0, 0.138479
