Database of Origin, USGS Spectral Database
Sample Description, See USGS database for additional info
Date Added,2016-08-03 20:55:33.012453

Data ID,USGS_alu16          
Sample ID, alunite_hs295.1425
Mineral Name, alunite
Material Class,Sulfate

Wavelength
1374.74, 0.307394
1375.11, 0.307618
1375.47, 0.307349
1375.84, 0.307035
1376.2, 0.306497
1376.57, 0.306094
1376.93, 0.305825
1377.3, 0.305735
1377.67, 0.305467
1378.03, 0.305287
1378.4, 0.305377
1378.76, 0.305332
1379.13, 0.304749
1379.5, 0.304839
1379.87, 0.304929
1380.23, 0.304391
1380.6, 0.303763
1380.97, 0.303674
1381.34, 0.303808
1381.7, 0.303943
1382.07, 0.303763
1382.44, 0.303494
1382.81, 0.303181
1383.18, 0.303091
1383.55, 0.302688
1383.92, 0.302688
1384.29, 0.302419
1384.66, 0.301791
1385.03, 0.301701
1385.4, 0.301433
1385.77, 0.301433
1386.14, 0.301388
1386.51, 0.300715
1386.88, 0.300402
1387.25, 0.300088
1387.62, 0.299460
1387.99, 0.299236
1388.36, 0.299550
1388.74, 0.299371
1389.11, 0.299191
1389.48, 0.298698
1389.85, 0.298474
1390.23, 0.298205
1390.6, 0.297488
1390.97, 0.296995
1391.35, 0.296592
1391.72, 0.296233
1392.09, 0.295875
1392.47, 0.295426
1392.84, 0.295202
1393.21, 0.294799
1393.59, 0.294440
1393.96, 0.293992
1394.34, 0.293589
1394.71, 0.293275
1395.09, 0.292871
1395.46, 0.292468
1395.84, 0.292109
1396.22, 0.291706
1396.59, 0.291347
1396.97, 0.291123
1397.35, 0.290496
1397.72, 0.289958
1398.1, 0.289465
1398.48, 0.288972
1398.85, 0.288344
1399.23, 0.287717
1399.61, 0.287537
1399.99, 0.287089
1400.37, 0.286372
1400.74, 0.285834
1401.12, 0.285789
1401.5, 0.285386
1401.88, 0.284490
1402.26, 0.283683
1402.64, 0.283145
1403.02, 0.282473
1403.4, 0.281711
1403.78, 0.280993
1404.16, 0.280187
1404.54, 0.279111
1404.92, 0.278349
1405.3, 0.277856
1405.68, 0.277497
1406.06, 0.277004
1406.44, 0.276197
1406.83, 0.275660
1407.21, 0.275301
1407.59, 0.274808
1407.97, 0.274225
1408.35, 0.273105
1408.74, 0.271939
1409.12, 0.271222
1409.5, 0.270863
1409.89, 0.270191
1410.27, 0.269698
1410.65, 0.269205
1411.04, 0.268398
1411.42, 0.267547
1411.81, 0.266695
1412.19, 0.265754
1412.58, 0.265261
1412.96, 0.264364
1413.35, 0.263423
1413.73, 0.262706
1414.12, 0.261764
1414.5, 0.261002
1414.89, 0.260240
1415.28, 0.259075
1415.66, 0.257551
1416.05, 0.256296
1416.44, 0.255176
1416.82, 0.253786
1417.21, 0.252172
1417.6, 0.250380
1417.98, 0.248631
1418.37, 0.246838
1418.76, 0.244732
1419.15, 0.242222
1419.54, 0.238950
1419.93, 0.235229
1420.32, 0.231599
1420.71, 0.226892
1421.09, 0.221379
1421.48, 0.216269
1421.88, 0.210980
1422.27, 0.205288
1422.66, 0.199864
1423.05, 0.194530
1423.44, 0.189107
1423.83, 0.183504
1424.22, 0.178081
1424.61, 0.172612
1425.0, 0.167502
1425.39, 0.164051
1425.78, 0.163334
1426.18, 0.165485
1426.57, 0.169654
1426.96, 0.174136
1427.36, 0.177767
1427.75, 0.180456
1428.14, 0.182428
1428.54, 0.184132
1428.93, 0.185476
1429.32, 0.186328
1429.72, 0.186866
1430.11, 0.186866
1430.51, 0.186059
1430.9, 0.184804
1431.3, 0.184132
1431.69, 0.184625
1432.09, 0.187224
1432.48, 0.190989
1432.88, 0.194934
1433.28, 0.198564
1433.67, 0.201702
1434.07, 0.204391
1434.46, 0.207170
1434.86, 0.210218
1435.26, 0.213311
1435.66, 0.215866
1436.05, 0.218376
1436.45, 0.220662
1436.85, 0.222455
1437.25, 0.223889
1437.65, 0.225010
1438.05, 0.225772
1438.44, 0.226220
1438.84, 0.226399
1439.24, 0.226489
1439.64, 0.226668
1440.04, 0.226623
1440.44, 0.226310
1440.84, 0.225682
1441.24, 0.225368
1441.65, 0.225279
1442.05, 0.225010
1442.45, 0.224382
1442.85, 0.223934
1443.25, 0.223934
1443.65, 0.223576
1444.05, 0.223217
1444.46, 0.222769
1444.86, 0.222365
1445.26, 0.222186
1445.67, 0.221603
1446.07, 0.220886
1446.47, 0.220303
1446.88, 0.219362
1447.28, 0.218376
1447.68, 0.217614
1448.09, 0.216852
1448.49, 0.215956
1448.9, 0.215014
1449.3, 0.213894
1449.71, 0.212684
1450.11, 0.211653
1450.52, 0.210487
1450.93, 0.209232
1451.33, 0.208291
1451.74, 0.207439
1452.14, 0.206498
1452.55, 0.205333
1452.96, 0.204436
1453.36, 0.203674
1453.77, 0.202778
1454.18, 0.201837
1454.59, 0.201209
1455.0, 0.200626
1455.41, 0.199864
1455.81, 0.199013
1456.22, 0.198340
1456.63, 0.197354
1457.04, 0.196727
1457.45, 0.196144
1457.86, 0.195561
1458.27, 0.195068
1458.68, 0.194844
1459.09, 0.194665
1459.5, 0.194575
1459.91, 0.194172
1460.32, 0.193993
1460.74, 0.194217
1461.15, 0.194620
1461.56, 0.194799
1461.97, 0.194979
1462.39, 0.195068
1462.8, 0.195068
1463.21, 0.195023
1463.62, 0.194844
1464.04, 0.194441
1464.45, 0.194127
1464.86, 0.193903
1465.28, 0.193410
1465.69, 0.192827
1466.11, 0.192155
1466.52, 0.190900
1466.94, 0.190003
1467.35, 0.188972
1467.77, 0.187628
1468.18, 0.185924
1468.6, 0.184221
1469.02, 0.182787
1469.43, 0.180904
1469.85, 0.178663
1470.27, 0.176467
1470.68, 0.173733
1471.1, 0.170640
1471.52, 0.167368
1471.94, 0.163872
1472.35, 0.160196
1472.77, 0.155804
1473.19, 0.150918
1473.61, 0.146301
1474.03, 0.141460
1474.45, 0.136037
1474.87, 0.130524
1475.29, 0.125459
1475.71, 0.120618
1476.13, 0.116270
1476.55, 0.112819
1476.97, 0.110443
1477.39, 0.109547
1477.81, 0.110309
1478.23, 0.112595
1478.65, 0.116270
1479.07, 0.120887
1479.5, 0.126355
1479.92, 0.132899
1480.34, 0.139623
1480.76, 0.146436
1481.19, 0.153114
1481.61, 0.159165
1482.03, 0.164858
1482.46, 0.170416
1482.88, 0.175436
1483.31, 0.179918
1483.73, 0.183952
1484.16, 0.187538
1484.58, 0.191034
1485.01, 0.194441
1485.43, 0.197623
1485.86, 0.200447
1486.28, 0.202912
1486.71, 0.205333
1487.14, 0.207708
1487.56, 0.209456
1487.99, 0.210756
1488.42, 0.212056
1488.84, 0.213311
1489.27, 0.214521
1489.7, 0.215552
1490.13, 0.216404
1490.56, 0.217031
1490.98, 0.217659
1491.41, 0.218376
1491.84, 0.219004
1492.27, 0.219362
1492.7, 0.219766
1493.13, 0.220303
1493.56, 0.220528
1493.99, 0.220707
1494.42, 0.221021
1494.85, 0.221738
1495.29, 0.222052
1495.72, 0.221962
1496.15, 0.222186
1496.58, 0.222679
1497.01, 0.223262
1497.44, 0.223800
1497.88, 0.224203
1498.31, 0.224338
1498.74, 0.224517
1499.18, 0.225144
1499.61, 0.225682
1500.04, 0.226220
1500.48, 0.226803
1500.91, 0.227430
1501.35, 0.227968
1501.78, 0.228641
1502.22, 0.229402
1502.65, 0.230075
1503.09, 0.230613
1503.53, 0.231151
1503.96, 0.232092
1504.4, 0.233168
1504.83, 0.233885
1505.27, 0.234423
1505.71, 0.234960
1506.15, 0.235857
1506.58, 0.236843
1507.02, 0.237650
1507.46, 0.238501
1507.9, 0.239308
1508.34, 0.240294
1508.78, 0.241191
1509.21, 0.241729
1509.66, 0.242132
1510.09, 0.242670
1510.53, 0.243253
1510.97, 0.243656
1511.42, 0.244194
1511.86, 0.244732
1512.3, 0.245001
1512.74, 0.245090
1513.18, 0.245270
1513.62, 0.245539
1514.06, 0.245852
1514.51, 0.245897
1514.95, 0.246301
1515.39, 0.246435
1515.83, 0.246525
1516.28, 0.246883
1516.72, 0.247466
1517.16, 0.247959
1517.61, 0.248138
1518.05, 0.248138
1518.5, 0.248452
1518.94, 0.248900
1519.39, 0.249169
1519.83, 0.249528
1520.28, 0.249886
1520.73, 0.250066
1521.17, 0.250245
1521.62, 0.250514
1522.07, 0.250604
1522.51, 0.250783
1522.96, 0.250828
1523.41, 0.250783
1523.85, 0.251052
1524.3, 0.251455
1524.75, 0.251679
1525.2, 0.251590
1525.65, 0.251455
1526.1, 0.251545
1526.55, 0.251679
1527.0, 0.251814
1527.45, 0.251724
1527.9, 0.251500
1528.35, 0.251679
1528.8, 0.251903
1529.25, 0.251769
1529.7, 0.251769
1530.15, 0.251859
1530.6, 0.251859
1531.05, 0.251993
1531.51, 0.252128
1531.96, 0.252217
1532.41, 0.252486
1532.87, 0.252665
1533.32, 0.252665
1533.77, 0.252800
1534.23, 0.252845
1534.68, 0.253024
1535.14, 0.253293
1535.59, 0.253652
1536.05, 0.253965
1536.5, 0.254234
1536.96, 0.254234
1537.41, 0.254369
1537.87, 0.254458
1538.32, 0.254682
1538.78, 0.255086
1539.24, 0.255220
1539.7, 0.255041
1540.15, 0.255220
1540.61, 0.255444
1541.07, 0.255489
1541.53, 0.255534
1541.98, 0.255848
1542.44, 0.255982
1542.9, 0.256027
1543.36, 0.256072
1543.82, 0.256072
1544.28, 0.256072
1544.74, 0.256565
1545.2, 0.256655
1545.66, 0.256610
1546.12, 0.256655
1546.59, 0.256924
1547.05, 0.256968
1547.51, 0.256924
1547.97, 0.257058
1548.43, 0.257237
1548.9, 0.257237
1549.36, 0.257327
1549.82, 0.257372
1550.29, 0.257417
1550.75, 0.257417
1551.21, 0.257506
1551.68, 0.257686
1552.14, 0.257686
1552.61, 0.257775
1553.07, 0.257910
1553.54, 0.258134
1554.0, 0.258313
1554.47, 0.258223
1554.93, 0.258313
1555.4, 0.258537
1555.87, 0.258672
1556.34, 0.258761
1556.8, 0.258896
1557.27, 0.258896
1557.74, 0.258761
1558.21, 0.258941
1558.68, 0.259030
1559.14, 0.259030
1559.61, 0.259165
1560.08, 0.259344
1560.55, 0.259523
1561.02, 0.259658
1561.49, 0.259568
1561.96, 0.259613
1562.43, 0.259568
1562.9, 0.259658
1563.38, 0.259747
1563.85, 0.259747
1564.32, 0.259747
1564.79, 0.259882
1565.26, 0.260061
1565.74, 0.260151
1566.21, 0.260106
1566.68, 0.260061
1567.16, 0.259882
1567.63, 0.260106
1568.1, 0.260285
1568.58, 0.260196
1569.05, 0.260151
1569.53, 0.260106
1570.0, 0.260106
1570.48, 0.260106
1570.96, 0.260375
1571.43, 0.260509
1571.91, 0.260465
1572.39, 0.260285
1572.86, 0.260465
1573.34, 0.260554
1573.82, 0.260465
1574.3, 0.260554
1574.77, 0.260644
1575.25, 0.260689
1575.73, 0.260734
1576.21, 0.260644
1576.69, 0.260823
1577.17, 0.260913
1577.65, 0.260823
1578.13, 0.260644
1578.61, 0.260644
1579.09, 0.260778
1579.57, 0.260868
1580.05, 0.261182
1580.54, 0.261047
1581.02, 0.260913
1581.5, 0.261047
1581.98, 0.261137
1582.47, 0.261227
1582.95, 0.260958
1583.43, 0.260868
1583.92, 0.260823
1584.4, 0.260958
1584.88, 0.261047
1585.37, 0.261137
1585.85, 0.261047
1586.34, 0.261047
1586.82, 0.261002
1587.31, 0.261092
1587.8, 0.261182
1588.28, 0.261092
1588.77, 0.261092
1589.26, 0.261406
1589.74, 0.261316
1590.23, 0.261361
1590.72, 0.261585
1591.21, 0.261720
1591.7, 0.261406
1592.19, 0.261361
1592.67, 0.261540
1593.16, 0.261585
1593.65, 0.261540
1594.14, 0.261630
1594.63, 0.261854
1595.12, 0.261899
1595.61, 0.261989
1596.11, 0.262168
1596.6, 0.262213
1597.09, 0.262258
1597.58, 0.262437
1598.08, 0.262571
1598.57, 0.262616
1599.06, 0.262661
1599.55, 0.262840
1600.05, 0.262795
1600.54, 0.262616
1601.04, 0.262795
1601.53, 0.263020
1602.03, 0.262975
1602.52, 0.262930
1603.02, 0.262930
1603.51, 0.262975
1604.01, 0.263244
1604.5, 0.263513
1605.0, 0.263468
1605.5, 0.263333
1606.0, 0.263378
1606.49, 0.263468
1606.99, 0.263557
1607.49, 0.263602
1607.99, 0.263602
1608.49, 0.263468
1608.99, 0.263647
1609.49, 0.263916
1609.99, 0.264050
1610.49, 0.263826
1610.99, 0.263826
1611.49, 0.263916
1611.99, 0.264140
1612.49, 0.264319
1612.99, 0.264319
1613.49, 0.264319
1614.0, 0.264454
1614.5, 0.264678
1615.0, 0.264857
1615.51, 0.264857
1616.01, 0.265037
1616.51, 0.265305
1617.02, 0.265261
1617.52, 0.265171
1618.03, 0.265171
1618.53, 0.265305
1619.04, 0.265350
1619.54, 0.265485
1620.05, 0.265664
1620.55, 0.265754
1621.06, 0.265754
1621.57, 0.265574
1622.08, 0.265530
1622.58, 0.265709
1623.09, 0.265933
1623.6, 0.265843
1624.11, 0.265709
1624.62, 0.265709
1625.13, 0.265798
1625.64, 0.266023
1626.15, 0.266202
1626.66, 0.266112
1627.17, 0.266157
1627.68, 0.266426
1628.19, 0.266605
1628.7, 0.266605
1629.21, 0.266650
1629.72, 0.266785
1630.24, 0.266695
1630.75, 0.266471
1631.26, 0.266560
1631.78, 0.266560
1632.29, 0.266560
1632.8, 0.266471
1633.32, 0.266605
1633.83, 0.266695
1634.35, 0.266695
1634.86, 0.266516
1635.38, 0.266560
1635.9, 0.266695
1636.41, 0.266785
1636.93, 0.266785
1637.45, 0.266740
1637.96, 0.266740
1638.48, 0.266874
1639.0, 0.266964
1639.52, 0.267009
1640.04, 0.266964
1640.56, 0.267054
1641.08, 0.266829
1641.59, 0.266740
1642.11, 0.266740
1642.63, 0.266785
1643.16, 0.266874
1643.68, 0.266874
1644.2, 0.266695
1644.72, 0.266650
1645.24, 0.266695
1645.76, 0.266740
1646.29, 0.266829
1646.81, 0.266874
1647.33, 0.266964
1647.86, 0.266964
1648.38, 0.266919
1648.9, 0.266919
1649.43, 0.266874
1649.95, 0.266829
1650.48, 0.266740
1651.0, 0.266695
1651.53, 0.266695
1652.06, 0.266695
1652.58, 0.266695
1653.11, 0.266650
1653.64, 0.266650
1654.17, 0.266650
1654.69, 0.266560
1655.22, 0.266560
1655.75, 0.266560
1656.28, 0.266560
1656.81, 0.266247
1657.34, 0.266157
1657.87, 0.266292
1658.4, 0.266381
1658.93, 0.266336
1659.46, 0.266157
1659.99, 0.266381
1660.52, 0.266560
1661.05, 0.266292
1661.59, 0.266157
1662.12, 0.266112
1662.65, 0.266112
1663.19, 0.266202
1663.72, 0.266157
1664.26, 0.265888
1664.79, 0.265843
1665.32, 0.265798
1665.86, 0.265933
1666.39, 0.265843
1666.93, 0.265798
1667.47, 0.265888
1668.0, 0.265754
1668.54, 0.265619
1669.08, 0.265485
1669.61, 0.265395
1670.15, 0.265440
1670.69, 0.265440
1671.23, 0.265350
1671.77, 0.265261
1672.31, 0.265171
1672.85, 0.265171
1673.39, 0.265171
1673.93, 0.264992
1674.47, 0.264992
1675.01, 0.264992
1675.55, 0.264947
1676.09, 0.264857
1676.64, 0.264902
1677.18, 0.264947
1677.72, 0.264812
1678.26, 0.264678
1678.81, 0.264543
1679.35, 0.264364
1679.89, 0.264364
1680.44, 0.264319
1680.98, 0.264140
1681.53, 0.263961
1682.07, 0.264050
1682.62, 0.264185
1683.17, 0.263916
1683.71, 0.263692
1684.26, 0.263737
1684.81, 0.263692
1685.36, 0.263557
1685.9, 0.263468
1686.45, 0.263423
1687.0, 0.263378
1687.55, 0.263244
1688.1, 0.263244
1688.65, 0.263288
1689.2, 0.263109
1689.75, 0.263154
1690.3, 0.263109
1690.85, 0.263064
1691.41, 0.262885
1691.96, 0.262840
1692.51, 0.262840
1693.06, 0.262840
1693.61, 0.262751
1694.17, 0.262571
1694.72, 0.262526
1695.28, 0.262392
1695.83, 0.262347
1696.39, 0.262347
1696.94, 0.262258
1697.5, 0.262258
1698.05, 0.262123
1698.61, 0.262168
1699.17, 0.261944
1699.72, 0.261809
1700.28, 0.261720
1700.84, 0.261630
1701.4, 0.261675
1701.95, 0.261630
1702.51, 0.261496
1703.07, 0.261361
1703.63, 0.261316
1704.19, 0.261182
1704.75, 0.261047
1705.31, 0.260958
1705.88, 0.260778
1706.44, 0.260689
1707.0, 0.260599
1707.56, 0.260375
1708.12, 0.260285
1708.69, 0.260151
1709.25, 0.259972
1709.81, 0.259747
1710.38, 0.259568
1710.94, 0.259568
1711.51, 0.259479
1712.07, 0.259210
1712.64, 0.258985
1713.2, 0.258806
1713.77, 0.258627
1714.34, 0.258403
1714.9, 0.258179
1715.47, 0.257910
1716.04, 0.257730
1716.61, 0.257686
1717.18, 0.257237
1717.74, 0.256834
1718.31, 0.256475
1718.88, 0.256072
1719.45, 0.255758
1720.02, 0.255444
1720.59, 0.255086
1721.17, 0.254682
1721.74, 0.254189
1722.31, 0.253741
1722.88, 0.253203
1723.45, 0.252665
1724.03, 0.252038
1724.6, 0.251500
1725.18, 0.250917
1725.75, 0.250514
1726.33, 0.249842
1726.9, 0.248900
1727.48, 0.248318
1728.05, 0.247869
1728.63, 0.247107
1729.2, 0.246435
1729.78, 0.245897
1730.36, 0.245135
1730.94, 0.244463
1731.51, 0.243791
1732.09, 0.243029
1732.67, 0.242536
1733.25, 0.241908
1733.83, 0.241101
1734.41, 0.240429
1734.99, 0.239981
1735.57, 0.239488
1736.15, 0.238860
1736.73, 0.238367
1737.32, 0.237740
1737.9, 0.236888
1738.48, 0.235991
1739.07, 0.235454
1739.65, 0.234736
1740.23, 0.233795
1740.82, 0.232899
1741.4, 0.231957
1741.99, 0.230971
1742.57, 0.230120
1743.16, 0.229223
1743.74, 0.228237
1744.33, 0.227475
1744.92, 0.226579
1745.51, 0.225637
1746.09, 0.224786
1746.68, 0.224069
1747.27, 0.223307
1747.86, 0.222545
1748.45, 0.221648
1749.04, 0.220841
1749.63, 0.220214
1750.22, 0.219676
1750.81, 0.219004
1751.4, 0.218466
1751.99, 0.217973
1752.59, 0.217524
1753.18, 0.217076
1753.77, 0.216807
1754.37, 0.216628
1754.96, 0.216359
1755.56, 0.215866
1756.15, 0.215328
1756.74, 0.214970
1757.34, 0.214566
1757.94, 0.213983
1758.53, 0.213401
1759.13, 0.212728
1759.73, 0.212146
1760.32, 0.211653
1760.92, 0.211339
1761.52, 0.210936
1762.12, 0.210532
1762.72, 0.210174
1763.32, 0.209591
1763.92, 0.209277
1764.52, 0.209098
1765.12, 0.208829
1765.72, 0.208560
1766.32, 0.208336
1766.92, 0.208336
1767.53, 0.208336
1768.13, 0.208381
1768.73, 0.208605
1769.34, 0.209098
1769.94, 0.209949
1770.55, 0.210801
1771.15, 0.211698
1771.76, 0.212773
1772.36, 0.213894
1772.97, 0.215059
1773.57, 0.216090
1774.18, 0.217211
1774.79, 0.218376
1775.4, 0.219183
1776.0, 0.219676
1776.61, 0.219900
1777.22, 0.220214
1777.83, 0.220662
1778.44, 0.221200
1779.05, 0.221872
1779.66, 0.222589
1780.27, 0.223441
1780.88, 0.224741
1781.5, 0.226310
1782.11, 0.227699
1782.72, 0.229044
1783.33, 0.230433
1783.95, 0.231644
1784.56, 0.233078
1785.18, 0.234378
1785.79, 0.235319
1786.41, 0.236440
1787.02, 0.237919
1787.64, 0.239443
1788.26, 0.240922
1788.87, 0.242670
1789.49, 0.244284
1790.11, 0.245718
1790.73, 0.247287
1791.35, 0.248766
1791.96, 0.250111
1792.58, 0.251410
1793.21, 0.252441
1793.83, 0.253338
1794.45, 0.254189
1795.07, 0.255041
1795.69, 0.255848
1796.31, 0.256341
1796.93, 0.256655
1797.56, 0.257193
1798.18, 0.257686
1798.8, 0.258044
1799.43, 0.258403
1800.05, 0.258851
1800.68, 0.259210
1801.3, 0.259613
1801.93, 0.259837
1802.56, 0.260196
1803.18, 0.260465
1803.81, 0.260689
1804.44, 0.261002
1805.07, 0.261227
1805.7, 0.261316
1806.33, 0.261496
1806.95, 0.261675
1807.58, 0.261720
1808.22, 0.261899
1808.85, 0.262168
1809.48, 0.262258
1810.11, 0.262302
1810.74, 0.262392
1811.38, 0.262437
1812.01, 0.262392
1812.64, 0.262437
1813.28, 0.262482
1813.91, 0.262571
1814.55, 0.262482
1815.18, 0.262526
1815.82, 0.262661
1816.45, 0.262840
1817.09, 0.262930
1817.73, 0.262930
1818.36, 0.262975
1819.0, 0.262975
1819.64, 0.263109
1820.28, 0.263109
1820.92, 0.262975
1821.56, 0.262930
1822.2, 0.263020
1822.84, 0.263154
1823.48, 0.263199
1824.12, 0.263154
1824.76, 0.263020
1825.41, 0.263020
1826.05, 0.262885
1826.69, 0.262840
1827.34, 0.262930
1827.98, 0.262840
1828.63, 0.262840
1829.27, 0.262930
1829.92, 0.262885
1830.56, 0.262616
1831.21, 0.262392
1831.86, 0.262258
1832.5, 0.262213
1833.15, 0.262347
1833.8, 0.262302
1834.45, 0.262213
1835.1, 0.262168
1835.75, 0.262168
1836.4, 0.262078
1837.05, 0.261809
1837.7, 0.261809
1838.35, 0.261899
1839.01, 0.261675
1839.66, 0.261451
1840.31, 0.261406
1840.96, 0.261406
1841.62, 0.261271
1842.27, 0.261271
1842.93, 0.261271
1843.58, 0.261271
1844.24, 0.261182
1844.9, 0.261092
1845.55, 0.260823
1846.21, 0.260734
1846.87, 0.260689
1847.53, 0.260778
1848.18, 0.260734
1848.84, 0.260644
1849.5, 0.260599
1850.16, 0.260554
1850.82, 0.260285
1851.48, 0.260061
1852.14, 0.260016
1852.81, 0.259927
1853.47, 0.259747
1854.13, 0.259658
1854.8, 0.259568
1855.46, 0.259479
1856.12, 0.259344
1856.79, 0.259120
1857.45, 0.258941
1858.12, 0.258717
1858.79, 0.258448
1859.45, 0.258223
1860.12, 0.258179
1860.79, 0.258044
1861.46, 0.257775
1862.12, 0.257551
1862.79, 0.257506
1863.46, 0.257282
1864.13, 0.257058
1864.8, 0.256834
1865.48, 0.256610
1866.15, 0.256341
1866.82, 0.256072
1867.49, 0.255669
1868.16, 0.255444
1868.84, 0.255131
1869.51, 0.254727
1870.19, 0.254414
1870.86, 0.254145
1871.54, 0.253831
1872.21, 0.253293
1872.89, 0.252845
1873.56, 0.252576
1874.24, 0.252352
1874.92, 0.251948
1875.6, 0.251545
1876.28, 0.251186
1876.96, 0.250783
1877.64, 0.250335
1878.32, 0.249931
1879.0, 0.249573
1879.68, 0.249124
1880.36, 0.248631
1881.04, 0.248273
1881.73, 0.247825
1882.41, 0.247242
1883.09, 0.246704
1883.78, 0.246211
1884.46, 0.245763
1885.15, 0.245270
1885.83, 0.244821
1886.52, 0.244239
1887.21, 0.243611
1887.89, 0.243118
1888.58, 0.242625
1889.27, 0.242042
1889.96, 0.241415
1890.65, 0.240832
1891.34, 0.240339
1892.03, 0.239712
1892.72, 0.238905
1893.41, 0.238322
1894.1, 0.237784
1894.79, 0.237112
1895.49, 0.236484
1896.18, 0.235767
1896.87, 0.235050
1897.57, 0.234333
1898.26, 0.233661
1898.96, 0.232988
1899.65, 0.232361
1900.35, 0.231688
1901.05, 0.231016
1901.74, 0.230254
1902.44, 0.229358
1903.14, 0.228730
1903.84, 0.228058
1904.54, 0.227161
1905.24, 0.226444
1905.94, 0.225861
1906.64, 0.225144
1907.34, 0.224427
1908.04, 0.223665
1908.75, 0.223038
1909.45, 0.222320
1910.15, 0.221603
1910.86, 0.220976
1911.56, 0.220214
1912.27, 0.219362
1912.97, 0.218869
1913.68, 0.218421
1914.39, 0.217838
1915.09, 0.217121
1915.8, 0.216494
1916.51, 0.215866
1917.22, 0.215418
1917.93, 0.214880
1918.64, 0.214387
1919.35, 0.213894
1920.06, 0.213490
1920.77, 0.213221
1921.48, 0.212863
1922.19, 0.212325
1922.91, 0.212011
1923.62, 0.211563
1924.33, 0.211294
1925.05, 0.211025
1925.76, 0.210667
1926.48, 0.210442
1927.19, 0.210353
1927.91, 0.210129
1928.63, 0.209815
1929.35, 0.209770
1930.07, 0.209725
1930.78, 0.209456
1931.5, 0.209412
1932.22, 0.209277
1932.94, 0.209098
1933.66, 0.209008
1934.39, 0.208963
1935.11, 0.208919
1935.83, 0.208874
1936.55, 0.208739
1937.28, 0.208650
1938.0, 0.208605
1938.73, 0.208650
1939.45, 0.208425
1940.18, 0.208246
1940.9, 0.208201
1941.63, 0.208246
1942.36, 0.208022
1943.09, 0.207843
1943.81, 0.207708
1944.54, 0.207529
1945.27, 0.207350
1946.0, 0.207350
1946.73, 0.207215
1947.47, 0.206902
1948.2, 0.206722
1948.93, 0.206364
1949.66, 0.205960
1950.4, 0.205871
1951.13, 0.205691
1951.86, 0.205378
1952.6, 0.205153
1953.34, 0.204974
1954.07, 0.204660
1954.81, 0.204347
1955.55, 0.204122
1956.29, 0.203943
1957.02, 0.203809
1957.76, 0.203629
1958.5, 0.203540
1959.24, 0.203271
1959.98, 0.202957
1960.72, 0.202778
1961.47, 0.202733
1962.21, 0.202599
1962.95, 0.202509
1963.7, 0.202509
1964.44, 0.202374
1965.18, 0.202419
1965.93, 0.202554
1966.67, 0.202554
1967.42, 0.202643
1968.17, 0.202957
1968.92, 0.202957
1969.66, 0.203092
1970.41, 0.203316
1971.16, 0.203540
1971.91, 0.203674
1972.66, 0.203764
1973.41, 0.203988
1974.16, 0.204257
1974.92, 0.204391
1975.67, 0.204526
1976.42, 0.204571
1977.18, 0.204616
1977.93, 0.204616
1978.69, 0.204616
1979.44, 0.204616
1980.2, 0.204481
1980.95, 0.204347
1981.71, 0.204347
1982.47, 0.204167
1983.23, 0.203943
1983.99, 0.203764
1984.74, 0.203450
1985.51, 0.203136
1986.27, 0.202867
1987.03, 0.202554
1987.79, 0.202240
1988.55, 0.201792
1989.32, 0.201343
1990.08, 0.200895
1990.84, 0.200402
1991.61, 0.199909
1992.37, 0.199371
1993.14, 0.198699
1993.9, 0.198161
1994.67, 0.197758
1995.44, 0.197220
1996.21, 0.196547
1996.98, 0.195875
1997.75, 0.195292
1998.52, 0.194799
1999.29, 0.194217
2000.06, 0.193634
2000.83, 0.193006
2001.6, 0.192424
2002.38, 0.191931
2003.15, 0.191438
2003.93, 0.191034
2004.7, 0.190676
2005.48, 0.190317
2006.25, 0.189914
2007.03, 0.189421
2007.81, 0.189241
2008.58, 0.189017
2009.36, 0.188793
2010.14, 0.188524
2010.92, 0.188300
2011.7, 0.188210
2012.48, 0.188390
2013.26, 0.188435
2014.05, 0.188569
2014.83, 0.188793
2015.61, 0.188793
2016.4, 0.188883
2017.18, 0.189017
2017.97, 0.189062
2018.75, 0.189286
2019.54, 0.189645
2020.32, 0.189600
2021.11, 0.189600
2021.9, 0.189645
2022.69, 0.189734
2023.48, 0.189734
2024.27, 0.189824
2025.06, 0.189779
2025.85, 0.189690
2026.64, 0.189645
2027.44, 0.189376
2028.23, 0.189241
2029.02, 0.189062
2029.82, 0.188793
2030.61, 0.188345
2031.41, 0.188076
2032.2, 0.187762
2033.0, 0.187493
2033.8, 0.187180
2034.6, 0.187045
2035.4, 0.186821
2036.2, 0.186552
2037.0, 0.186373
2037.8, 0.186149
2038.6, 0.186014
2039.4, 0.185835
2040.2, 0.185566
2041.01, 0.185342
2041.81, 0.185252
2042.61, 0.184938
2043.42, 0.184580
2044.22, 0.184445
2045.03, 0.184087
2045.84, 0.183683
2046.65, 0.183459
2047.46, 0.183280
2048.26, 0.182877
2049.07, 0.182518
2049.88, 0.182204
2050.69, 0.181846
2051.51, 0.181397
2052.32, 0.181039
2053.13, 0.180591
2053.94, 0.180456
2054.76, 0.180142
2055.57, 0.179829
2056.39, 0.179515
2057.2, 0.179201
2058.02, 0.178887
2058.84, 0.178708
2059.66, 0.178529
2060.48, 0.178260
2061.29, 0.178036
2062.11, 0.177856
2062.94, 0.177767
2063.76, 0.177677
2064.58, 0.177543
2065.4, 0.177408
2066.22, 0.177319
2067.05, 0.177319
2067.87, 0.177408
2068.7, 0.177408
2069.52, 0.177543
2070.35, 0.177543
2071.18, 0.177498
2072.0, 0.177498
2072.83, 0.177543
2073.66, 0.177677
2074.49, 0.177677
2075.32, 0.177767
2076.15, 0.177812
2076.98, 0.177812
2077.82, 0.177722
2078.65, 0.177722
2079.48, 0.177587
2080.32, 0.177408
2081.15, 0.177363
2081.99, 0.177274
2082.83, 0.177094
2083.66, 0.176781
2084.5, 0.176646
2085.34, 0.176512
2086.18, 0.176108
2087.02, 0.175750
2087.86, 0.175481
2088.7, 0.175122
2089.54, 0.174629
2090.39, 0.173957
2091.23, 0.173329
2092.07, 0.172747
2092.92, 0.172209
2093.76, 0.171671
2094.61, 0.170999
2095.45, 0.170326
2096.3, 0.169564
2097.15, 0.168713
2098.0, 0.167906
2098.85, 0.167189
2099.7, 0.166203
2100.55, 0.165216
2101.4, 0.164230
2102.25, 0.163199
2103.1, 0.161989
2103.96, 0.160734
2104.81, 0.159389
2105.67, 0.158000
2106.52, 0.156521
2107.38, 0.155131
2108.24, 0.153742
2109.09, 0.152083
2109.95, 0.150290
2110.81, 0.148542
2111.67, 0.146749
2112.53, 0.145091
2113.39, 0.143253
2114.25, 0.141416
2115.12, 0.139488
2115.98, 0.137471
2116.84, 0.135185
2117.71, 0.132989
2118.58, 0.130658
2119.44, 0.128417
2120.31, 0.126131
2121.18, 0.123890
2122.04, 0.121694
2122.91, 0.119587
2123.78, 0.117570
2124.65, 0.115956
2125.52, 0.114432
2126.4, 0.112998
2127.27, 0.111564
2128.14, 0.110533
2129.02, 0.109412
2129.89, 0.108336
2130.77, 0.107261
2131.64, 0.106319
2132.52, 0.105557
2133.4, 0.104616
2134.27, 0.103630
2135.15, 0.102778
2136.03, 0.101747
2136.91, 0.100761
2137.79, 0.0998200
2138.68, 0.0989680
2139.56, 0.0978930
2140.44, 0.0968620
2141.33, 0.0960550
2142.21, 0.0955170
2143.1, 0.0949340
2143.99, 0.0943070
2144.87, 0.0937240
2145.76, 0.0930520
2146.65, 0.0923350
2147.54, 0.0914380
2148.43, 0.0903630
2149.32, 0.0892420
2150.21, 0.0877180
2151.1, 0.0860600
2151.99, 0.0842670
2152.89, 0.0825190
2153.78, 0.0809950
2154.68, 0.0796500
2155.57, 0.0787530
2156.47, 0.0782600
2157.37, 0.0780360
2158.27, 0.0781710
2159.16, 0.0786640
2160.06, 0.0792020
2160.96, 0.0795600
2161.86, 0.0797840
2162.77, 0.0799190
2163.67, 0.0798740
2164.57, 0.0794710
2165.48, 0.0787980
2166.38, 0.0779910
2167.29, 0.0774980
2168.2, 0.0774090
2169.1, 0.0777670
2170.01, 0.0785740
2170.92, 0.0797840
2171.83, 0.0810390
2172.74, 0.0822050
2173.65, 0.0828320
2174.56, 0.0831010
2175.47, 0.0828770
2176.39, 0.0821150
2177.3, 0.0810390
2178.22, 0.0799190
2179.13, 0.0789780
2180.05, 0.0783050
2180.96, 0.0782160
2181.88, 0.0789780
2182.8, 0.0804570
2183.72, 0.0826080
2184.64, 0.0852530
2185.56, 0.0878520
2186.48, 0.0901830
2187.41, 0.0920660
2188.33, 0.0932760
2189.25, 0.0940830
2190.18, 0.0946650
2191.1, 0.0954270
2192.03, 0.0970410
2192.96, 0.0999100
2193.89, 0.103899
2194.82, 0.108381
2195.74, 0.112998
2196.68, 0.117256
2197.61, 0.120439
2198.54, 0.122276
2199.47, 0.122904
2200.4, 0.122187
2201.34, 0.120035
2202.28, 0.116539
2203.21, 0.112057
2204.15, 0.107574
2205.08, 0.103989
2206.02, 0.101658
2206.96, 0.100044
2207.9, 0.0986550
2208.84, 0.0977130
2209.78, 0.0975790
2210.73, 0.0987890
2211.67, 0.101568
2212.61, 0.105602
2213.56, 0.110757
2214.5, 0.116315
2215.45, 0.121918
2216.4, 0.127565
2217.35, 0.133258
2218.3, 0.139085
2219.24, 0.145181
2220.2, 0.151590
2221.15, 0.157865
2222.1, 0.163289
2223.05, 0.168040
2224.0, 0.172164
2224.96, 0.175705
2225.91, 0.178708
2226.87, 0.181263
2227.83, 0.183325
2228.79, 0.185207
2229.74, 0.186955
2230.7, 0.188435
2231.66, 0.189734
2232.63, 0.190900
2233.59, 0.192020
2234.55, 0.193096
2235.51, 0.194172
2236.48, 0.195068
2237.44, 0.195741
2238.41, 0.196323
2239.38, 0.196772
2240.34, 0.197399
2241.31, 0.197892
2242.28, 0.198340
2243.25, 0.198789
2244.22, 0.199282
2245.19, 0.199685
2246.17, 0.199775
2247.14, 0.199820
2248.12, 0.200133
2249.09, 0.200496
2250.07, 0.200677
2251.04, 0.200587
2252.02, 0.200587
2253.0, 0.200677
2253.98, 0.200405
2254.96, 0.200224
2255.94, 0.199952
2256.92, 0.199861
2257.91, 0.199453
2258.89, 0.199181
2259.88, 0.199363
2260.86, 0.199363
2261.85, 0.199363
2262.83, 0.199363
2263.82, 0.199408
2264.81, 0.199453
2265.8, 0.199272
2266.79, 0.199045
2267.78, 0.198864
2268.78, 0.198683
2269.77, 0.198547
2270.76, 0.198547
2271.76, 0.198501
2272.75, 0.198184
2273.75, 0.198184
2274.75, 0.197867
2275.75, 0.197277
2276.75, 0.197005
2277.75, 0.196915
2278.75, 0.196416
2279.75, 0.195963
2280.75, 0.195646
2281.76, 0.195374
2282.76, 0.195011
2283.77, 0.194558
2284.77, 0.194150
2285.78, 0.193832
2286.79, 0.193288
2287.8, 0.192518
2288.81, 0.191566
2289.82, 0.190841
2290.83, 0.190025
2291.84, 0.189617
2292.86, 0.188982
2293.87, 0.187849
2294.89, 0.186580
2295.91, 0.185401
2296.92, 0.184358
2297.94, 0.183089
2298.96, 0.181457
2299.98, 0.179553
2301.0, 0.177604
2302.02, 0.175655
2303.04, 0.173434
2304.07, 0.170578
2305.09, 0.167314
2306.12, 0.163960
2307.15, 0.160016
2308.17, 0.156072
2309.2, 0.152355
2310.23, 0.148411
2311.26, 0.144105
2312.29, 0.140252
2313.32, 0.136716
2314.35, 0.133407
2315.39, 0.130642
2316.42, 0.128194
2317.46, 0.125837
2318.5, 0.124386
2319.53, 0.123525
2320.57, 0.123026
2321.61, 0.122981
2322.65, 0.123661
2323.69, 0.124658
2324.73, 0.125928
2325.78, 0.127423
2326.82, 0.128965
2327.86, 0.130869
2328.91, 0.132999
2329.96, 0.134948
2331.01, 0.136897
2332.05, 0.139164
2333.1, 0.141567
2334.15, 0.143652
2335.21, 0.146281
2336.26, 0.149046
2337.31, 0.151222
2338.36, 0.153216
2339.42, 0.155256
2340.48, 0.157477
2341.53, 0.159427
2342.59, 0.161059
2343.65, 0.162509
2344.71, 0.163688
2345.77, 0.164776
2346.83, 0.165274
2347.9, 0.165682
2348.96, 0.166181
2350.02, 0.166725
2351.09, 0.166906
2352.16, 0.166906
2353.23, 0.167087
2354.29, 0.167133
2355.36, 0.166951
2356.43, 0.166725
2357.51, 0.166362
2358.58, 0.166181
2359.65, 0.165546
2360.73, 0.164912
2361.8, 0.164594
2362.88, 0.163778
2363.96, 0.162554
2365.03, 0.161512
2366.11, 0.160469
2367.19, 0.159109
2368.27, 0.157477
2369.36, 0.155710
2370.44, 0.153942
2371.53, 0.152038
2372.61, 0.149545
2373.7, 0.147006
2374.78, 0.144422
2375.87, 0.141521
2376.96, 0.138711
2378.05, 0.135810
2379.14, 0.132500
2380.24, 0.129327
2381.33, 0.126154
2382.42, 0.122754
2383.52, 0.118992
2384.61, 0.115547
2385.71, 0.112419
2386.81, 0.109518
2387.91, 0.106662
2389.01, 0.104169
2390.11, 0.101903
2391.22, 0.0998630
2392.32, 0.0982760
2393.42, 0.0970980
2394.53, 0.0957830
2395.64, 0.0945590
2396.74, 0.0937880
2397.85, 0.0931080
2398.96, 0.0926550
2400.07, 0.0922470
2401.18, 0.0919300
2402.3, 0.0915220
2403.41, 0.0913860
2404.52, 0.0912950
2405.64, 0.0906150
2406.76, 0.0900260
2407.88, 0.0893910
2408.99, 0.0881220
2410.11, 0.0868080
2411.23, 0.0859460
2412.36, 0.0848580
2413.48, 0.0834530
2414.6, 0.0822290
2415.73, 0.0810050
2416.85, 0.0794640
2417.98, 0.0778770
2419.11, 0.0765180
2420.24, 0.0752030
2421.37, 0.0741600
2422.5, 0.0731630
2423.64, 0.0720750
2424.77, 0.0706700
2425.9, 0.0692190
2427.04, 0.0679500
2428.18, 0.0668620
2429.31, 0.0659100
2430.45, 0.0651400
2431.59, 0.0645960
2432.73, 0.0645500
2433.88, 0.0649580
2435.02, 0.0655930
2436.16, 0.0666360
2437.31, 0.0676330
2438.45, 0.0685390
2439.6, 0.0695370
2440.75, 0.0705340
2441.9, 0.0713500
2443.05, 0.0723020
2444.2, 0.0734800
2445.35, 0.0742060
2446.51, 0.0747950
2447.67, 0.0749310
2448.82, 0.0748860
2449.98, 0.0746590
2451.14, 0.0744320
2452.3, 0.0744320
2453.46, 0.0739340
2454.62, 0.0730720
2455.78, 0.0721660
2456.94, 0.0711690
2458.11, 0.0700350
2459.28, 0.0689470
2460.44, 0.0673610
2461.61, 0.0654120
2462.78, 0.0637340
2463.95, 0.0623740
2465.12, 0.0616950
2466.3, 0.0612870
2467.47, 0.0611050
2468.65, 0.0612870
2469.82, 0.0619670
2471.0, 0.0627820
2472.18, 0.0639160
2473.36, 0.0651850
2474.54, 0.0662280
2475.72, 0.0674060
2476.9, 0.0689470
2478.08, 0.0704430
2479.27, 0.0715310
2480.46, 0.0724380
2481.64, 0.0732080
2482.83, 0.0732540
2484.02, 0.0731180
2485.21, 0.0725740
2486.4, 0.0711690
2487.6, 0.0695370
2488.79, 0.0675870
2489.99, 0.0655020
2491.18, 0.0634620
2492.38, 0.0616950
2493.58, 0.0601080
2494.78, 0.0585670
2495.98, 0.0571620
2497.18, 0.0558020
2498.39, 0.0543960
2499.59, 0.0527640
2500.8, 0.0507700
2502.01, 0.0487750
2503.21, 0.0467360
2504.42, 0.0442880
2505.63, 0.0421120
2506.84, 0.0404800
2508.06, 0.0390290
2509.27, 0.0378510
2510.49, 0.0371710
2511.7, 0.0369900
2512.92, 0.0368540
2514.14, 0.0367630
2515.36, 0.0369440
2516.58, 0.0374880
2517.8, 0.0384850
2519.03, 0.0398450
2520.25, 0.0412510
2521.48, 0.0430640
2522.7, 0.0451040
2523.93, 0.0472800
2525.16, 0.0495460
2526.39, 0.0517670
2527.62, 0.0536710
2528.86, 0.0553480
2530.09, 0.0565270
2531.33, 0.0572520
2532.56, 0.0581130
2533.8, 0.0589290
2535.04, 0.0594730
2536.28, 0.0600630
2537.52, 0.0606070
2538.76, 0.0613770
2540.01, 0.0623290
2541.25, 0.0635080
2542.5, 0.0645960
2543.75, 0.0653210
2544.99, 0.0660460
2546.24, 0.0667720
2547.49, 0.0674060
2548.75, 0.0679050
2550.0, 0.0682220
2551.26, 0.0681310
2552.51, 0.0678140
2553.77, 0.0673150
2555.03, 0.0666810
2556.29, 0.0660460
2557.55, 0.0655020
2558.81, 0.0649580
2560.08, 0.0645960
2561.34, 0.0646410
2562.61, 0.0648220
2563.88, 0.0649580
2565.14, 0.0648220
2566.41, 0.0647320
2567.68, 0.0649130
2568.96, 0.0651400
2570.23, 0.0651850
2571.51, 0.0651850
2572.78, 0.0650940
2574.06, 0.0648220
2575.34, 0.0643690
2576.62, 0.0639610
2577.9, 0.0635080
2579.18, 0.0633260
2580.47, 0.0629180
2581.75, 0.0624200
2583.04, 0.0623290
2584.32, 0.0626010
2585.61, 0.0626460
2586.9, 0.0633260
2588.2, 0.0641880
2589.49, 0.0654120
2590.78, 0.0670440
2592.08, 0.0684940
2593.37, 0.0700810
2594.67, 0.0723470
2595.97, 0.0738430
2597.27, 0.0744780
2598.57, 0.0752030
2599.88, 0.0757020
2601.18, 0.0757920
2602.49, 0.0759740
2603.79, 0.0760640
2605.1, 0.0759280
2606.41, 0.0756560
2607.72, 0.0756110
2609.03, 0.0760640
2610.35, 0.0771970
2611.66, 0.0786030
2612.98, 0.0800990
2614.3, 0.0811410
2615.62, 0.0820030
2616.94, 0.0828640
2618.26, 0.0830900
2619.58, 0.0831810
2620.91, 0.0835440
2622.23, 0.0833170
2623.56, 0.0833170
2624.89, 0.0835440
2626.22, 0.0841780
2627.55, 0.0849940
2628.88, 0.0858560
2630.21, 0.0871700
2631.55, 0.0880770
2632.89, 0.0887570
2634.22, 0.0896630
2635.56, 0.0901620
2636.9, 0.0906610
2638.25, 0.0912050
2639.59, 0.0917490
2640.93, 0.0923830
2642.28, 0.0928820
2643.63, 0.0928360
2644.98, 0.0922920
2646.33, 0.0910230
2647.68, 0.0891650
2649.03, 0.0868530
2650.39, 0.0844960
2651.74, 0.0820480
2653.1, 0.0795550
2654.46, 0.0771520
2655.82, 0.0753390
2657.18, 0.0737520
2658.54, 0.0728910
2659.9, 0.0723020
2661.27, 0.0718030
2662.64, 0.0712590
2664.01, 0.0707610
2665.38, 0.0703980
2666.74, 0.0699450
2668.12, 0.0690380
2669.49, 0.0681310
2670.87, 0.0670440
2672.24, 0.0652760
2673.62, 0.0636890
2675.0, 0.0625100
2676.38, 0.0616950
2677.76, 0.0607430
2679.15, 0.0601530
2680.54, 0.0599270
2681.92, 0.0599270
2683.31, 0.0603800
2684.7, 0.0607880
2686.09, 0.0611960
2687.48, 0.0617850
2688.88, 0.0624650
2690.27, 0.0629640
2691.67, 0.0634620
2693.07, 0.0637800
2694.47, 0.0636440
2695.87, 0.0628280
2697.27, 0.0619670
2698.67, 0.0609690
2700.08, 0.0598810
2701.49, 0.0587030
2702.9, 0.0572970
2704.31, 0.0557560
2705.72, 0.0542600
2707.13, 0.0526280
2708.54, 0.0511780
2709.96, 0.0495910
2711.38, 0.0477330
2712.8, 0.0456020
2714.22, 0.0434720
2715.64, 0.0415680
2717.06, 0.0398910
2718.49, 0.0384850
2719.91, 0.0373520
2721.34, 0.0360380
2722.77, 0.0346320
2724.2, 0.0336800
2725.63, 0.0326380
2727.07, 0.0315500
2728.5, 0.0305980
2729.94, 0.0296460
2731.38, 0.0286490
2732.82, 0.0275610
2734.26, 0.0264280
2735.7, 0.0252940
2737.15, 0.0239800
2738.59, 0.0227100
2740.04, 0.0215320
2741.49, 0.0204440
2742.94, 0.0199000
2744.39, 0.0192650
2745.84, 0.0185850
2747.3, 0.0182230
2748.76, 0.0179050
2750.21, 0.0174970
2751.67, 0.0170900
2753.14, 0.0165910
2754.6, 0.0163190
2756.06, 0.0158660
2757.53, 0.0152760
2759.0, 0.0148680
2760.46, 0.0144150
2761.94, 0.0140980
2763.41, 0.0137800
2764.88, 0.0132360
2766.36, 0.0128740
2767.83, 0.0126470
2769.31, 0.0122850
2770.79, 0.0121490
2772.27, 0.0119220
2773.76, 0.0114230
2775.24, 0.0112870
2776.73, 0.0112420
2778.22, 0.0111060
2779.71, 0.0110610
2781.2, 0.0109700
2782.69, 0.0109250
2784.18, 0.0107430
2785.68, 0.0105620
2787.18, 0.0102900
2788.68, 0.0101090
2790.18, 0.0100630
2791.68, 0.00988200
2793.19, 0.00979100
2794.69, 0.00974600
2796.2, 0.00965500
2797.71, 0.00947400
2799.22, 0.00915700
2800.73, 0.00911100
2802.24, 0.00924700
2803.76, 0.00915700
2805.28, 0.00893000
2806.8, 0.00870300
2808.32, 0.00838600
2809.84, 0.00829500
2811.36, 0.00820500
2812.89, 0.00797800
2814.42, 0.00779700
2815.94, 0.00775100
2817.48, 0.00766100
2819.01, 0.00743400
2820.54, 0.00711700
2822.08, 0.00684500
2823.61, 0.00661800
2825.15, 0.00625600
2826.69, 0.00616500
2828.23, 0.00612000
2829.78, 0.00598400
2831.32, 0.00616500
2832.87, 0.00684500
2834.42, 0.00797800
2835.97, 0.0100180
2837.52, 0.0126920
2839.08, 0.0150040
2840.63, 0.0164100
2842.19, 0.0172260
2843.75, 0.0172260
2845.31, 0.0165000
2846.87, 0.0154580
2848.44, 0.0141880
2850.0, 0.0130550
2851.57, 0.0123750
2853.14, 0.0124660
2854.71, 0.0145960
2856.28, 0.0198090
2857.86, 0.0287390
2859.43, 0.0411600
2861.01, 0.0544870
2862.59, 0.0653660
2864.17, 0.0720300
2865.76, 0.0743870
2867.34, 0.0727550
2868.93, 0.0675420
2870.52, 0.0602890
2872.11, 0.0529460
2873.7, 0.0468720
2875.29, 0.0422930
2876.89, 0.0388480
2878.49, 0.0363100
2880.08, 0.0341340
2881.69, 0.0323660
2883.29, 0.0306890
2884.89, 0.0291930
2886.5, 0.0280590
2888.11, 0.0269720
2889.72, 0.0260200
2891.33, 0.0251580
2892.94, 0.0243880
2894.56, 0.0238890
2896.17, 0.0233450
2897.79, 0.0228920
2899.42, 0.0224840
2901.04, 0.0220310
2902.66, 0.0214870
2904.29, 0.0211240
2905.92, 0.0208970
2907.55, 0.0206710
2909.18, 0.0203990
2910.81, 0.0201270
2912.45, 0.0199910
2914.08, 0.0198550
2915.72, 0.0196280
2917.36, 0.0195370
2919.01, 0.0193110
2920.65, 0.0190840
2922.3, 0.0188570
2923.94, 0.0186760
2925.59, 0.0185400
2927.25, 0.0184040
2928.9, 0.0184040
2930.56, 0.0184490
2932.21, 0.0182680
2933.87, 0.0180410
2935.53, 0.0179510
2937.2, 0.0178600
2938.86, 0.0177690
2940.53, 0.0177240
2942.2, 0.0177240
2943.87, 0.0176790
2945.54, 0.0176790
2947.22, 0.0177240
2948.89, 0.0175430
2950.57, 0.0173160
2952.25, 0.0172260
2953.93, 0.0171800
2955.62, 0.0172260
2957.3, 0.0172260
2958.99, 0.0171350
2960.68, 0.0171350
2962.37, 0.0171800
2964.07, 0.0171800
2965.76, 0.0170440
2967.46, 0.0169080
2969.16, 0.0169080
2970.86, 0.0168180
2972.56, 0.0166360
2974.27, 0.0165000
2975.98, 0.0164100
2977.69, 0.0167270
2979.4, 0.0169540
2981.11, 0.0168630
2982.83, 0.0167720
2984.54, 0.0167720
2986.26, 0.0166820
2987.98, 0.0165910
2989.71, 0.0166360
2991.43, 0.0165910
2993.16, 0.0164550
2994.89, 0.0164550
2996.62, 0.0164550
2998.35, 0.0163190
3000.09, 0.0162740
3001.83, 0.0163190
3003.57, 0.0163190
3005.31, 0.0162740
3007.05, 0.0162280
3008.79, 0.0161830
3010.54, 0.0160920
3012.29, 0.0162740
3014.04, 0.0164100
3015.8, 0.0163190
3017.55, 0.0161380
3019.31, 0.0161380
3021.07, 0.0161380
3022.83, 0.0161830
3024.59, 0.0162280
3026.36, 0.0162740
3028.13, 0.0161830
3029.9, 0.0161380
3031.67, 0.0160920
3033.44, 0.0160470
3035.22, 0.0161830
3037.0, 0.0162280
3038.78, 0.0160920
3040.56, 0.0160920
3042.34, 0.0161830
3044.13, 0.0161830
3045.92, 0.0161380
3047.71, 0.0160920
3049.5, 0.0160470
3051.3, 0.0159110
3053.09, 0.0160020
3054.89, 0.0159560
3056.69, 0.0158660
3058.5, 0.0159560
3060.3, 0.0160470
3062.11, 0.0160470
3063.92, 0.0159560
3065.73, 0.0157750
3067.55, 0.0158200
3069.36, 0.0159110
3071.18, 0.0158660
3073.0, 0.0158200
3074.82, 0.0157750
3076.65, 0.0158200
3078.48, 0.0157750
3080.31, 0.0158200
3082.14, 0.0157750
3083.97, 0.0157300
3085.8, 0.0158660
3087.64, 0.0159560
3089.48, 0.0159110
3091.33, 0.0158200
3093.17, 0.0158200
3095.02, 0.0158660
3096.87, 0.0158660
3098.72, 0.0160020
3100.57, 0.0160020
3102.43, 0.0160020
3104.28, 0.0160020
3106.14, 0.0160020
3108.01, 0.0160920
3109.87, 0.0160920
3111.74, 0.0159560
3113.61, 0.0159110
3115.48, 0.0159560
3117.35, 0.0159110
3119.23, 0.0159560
3121.1, 0.0160470
3122.98, 0.0160470
3124.87, 0.0159560
3126.75, 0.0159110
3128.64, 0.0159560
3130.53, 0.0159110
3132.42, 0.0159560
3134.31, 0.0160020
3136.21, 0.0159560
3138.11, 0.0160470
3140.01, 0.0161380
3141.91, 0.0161830
3143.82, 0.0161830
3145.73, 0.0161380
3147.64, 0.0162280
3149.55, 0.0161380
3151.46, 0.0160920
3153.38, 0.0162280
3155.3, 0.0162740
3157.22, 0.0162740
3159.14, 0.0162740
3161.07, 0.0162280
3163.0, 0.0161830
3164.93, 0.0162740
3166.86, 0.0162740
3168.8, 0.0162280
3170.74, 0.0162740
3172.68, 0.0164100
3174.62, 0.0164550
3176.56, 0.0164100
3178.51, 0.0162740
3180.46, 0.0161830
3182.42, 0.0162280
3184.37, 0.0163640
3186.33, 0.0164100
3188.29, 0.0164100
3190.25, 0.0163640
3192.21, 0.0163640
3194.18, 0.0164100
3196.15, 0.0164100
3198.12, 0.0163640
3200.09, 0.0165000
3202.07, 0.0166360
3204.05, 0.0166360
3206.03, 0.0166360
3208.02, 0.0166360
3210.0, 0.0165910
3211.99, 0.0165000
3213.98, 0.0164550
3215.98, 0.0165460
3217.97, 0.0165910
3219.97, 0.0164550
3221.97, 0.0164550
3223.98, 0.0166360
3225.98, 0.0166360
3227.99, 0.0166360
3230.0, 0.0167270
3232.02, 0.0166820
3234.03, 0.0166820
3236.05, 0.0166360
3238.07, 0.0166360
3240.1, 0.0166820
3242.12, 0.0166360
3244.15, 0.0166360
3246.18, 0.0167720
3248.22, 0.0168180
3250.25, 0.0168180
3252.29, 0.0168630
3254.33, 0.0168180
3256.38, 0.0168180
3258.43, 0.0169080
3260.47, 0.0168180
3262.53, 0.0168180
3264.58, 0.0169080
3266.64, 0.0169540
3268.7, 0.0169540
3270.76, 0.0169540
3272.82, 0.0170440
3274.89, 0.0170440
3276.96, 0.0170900
3279.04, 0.0170900
3281.11, 0.0170440
3283.19, 0.0170900
3285.27, 0.0172260
3287.35, 0.0172260
3289.44, 0.0171350
3291.53, 0.0171800
3293.62, 0.0170900
3295.71, 0.0170900
3297.81, 0.0170900
3299.91, 0.0170900
3302.01, 0.0171800
3304.11, 0.0172260
3306.22, 0.0171350
3308.33, 0.0172260
3310.44, 0.0173620
3312.56, 0.0173160
3314.68, 0.0173620
3316.8, 0.0174970
3318.92, 0.0174970
3321.05, 0.0174520
3323.18, 0.0175430
3325.31, 0.0175430
3327.44, 0.0174520
3329.58, 0.0175430
3331.72, 0.0176790
3333.86, 0.0175880
3336.01, 0.0174520
3338.16, 0.0175430
3340.31, 0.0176790
3342.46, 0.0175430
3344.61, 0.0174520
3346.77, 0.0175880
3348.94, 0.0176790
3351.1, 0.0177240
3353.27, 0.0178600
3355.44, 0.0179510
3357.61, 0.0179510
3359.79, 0.0180870
3361.97, 0.0180870
3364.15, 0.0180870
3366.33, 0.0181320
3368.52, 0.0181770
3370.71, 0.0183130
3372.9, 0.0183130
3375.1, 0.0184490
3377.3, 0.0184490
3379.5, 0.0184040
3381.71, 0.0184490
3383.91, 0.0184490
3386.12, 0.0184950
3388.34, 0.0184490
3390.55, 0.0184490
3392.77, 0.0185400
3394.99, 0.0185400
3397.22, 0.0185850
3399.45, 0.0187670
3401.68, 0.0188570
3403.91, 0.0187670
3406.15, 0.0187210
3408.39, 0.0187670
3410.63, 0.0188120
3412.87, 0.0188570
3415.12, 0.0189480
3417.37, 0.0189480
3419.63, 0.0189030
3421.88, 0.0189030
3424.14, 0.0189480
3426.41, 0.0190390
3428.67, 0.0191290
3430.94, 0.0192200
3433.21, 0.0193560
3435.49, 0.0195370
3437.77, 0.0195370
3440.05, 0.0194470
3442.33, 0.0193560
3444.62, 0.0194010
3446.91, 0.0195830
3449.2, 0.0196280
3451.5, 0.0197640
3453.8, 0.0197640
3456.1, 0.0197640
3458.41, 0.0198090
3460.72, 0.0199450
3463.03, 0.0200810
3465.34, 0.0201270
3467.66, 0.0200810
3469.98, 0.0200810
3472.31, 0.0201720
3474.63, 0.0201720
3476.96, 0.0201720
3479.3, 0.0202630
3481.64, 0.0203530
3483.97, 0.0203990
3486.32, 0.0203530
3488.66, 0.0203080
3491.01, 0.0203530
3493.36, 0.0204440
3495.72, 0.0204890
3498.08, 0.0205350
3500.44, 0.0205800
3502.81, 0.0206250
3505.18, 0.0207160
3507.55, 0.0208520
3509.92, 0.0208070
3512.3, 0.0208520
3514.68, 0.0209880
3517.06, 0.0210330
3519.45, 0.0210790
3521.84, 0.0212150
3524.24, 0.0212150
3526.64, 0.0212600
3529.04, 0.0213050
3531.44, 0.0213050
3533.85, 0.0212150
3536.26, 0.0212150
3538.67, 0.0213510
3541.09, 0.0214870
3543.51, 0.0215770
3545.93, 0.0215770
3548.36, 0.0214870
3550.79, 0.0215770
3553.22, 0.0217130
3555.66, 0.0218040
3558.1, 0.0218040
3560.54, 0.0218490
3562.99, 0.0219400
3565.44, 0.0220310
3567.9, 0.0220760
3570.35, 0.0222120
3572.81, 0.0223030
3575.28, 0.0223480
3577.75, 0.0223930
3580.22, 0.0224840
3582.69, 0.0225740
3585.17, 0.0225740
3587.65, 0.0226200
3590.14, 0.0227100
3592.62, 0.0228460
3595.11, 0.0229370
3597.61, 0.0230730
3600.11, 0.0230730
3602.61, 0.0231640
3605.11, 0.0232540
3607.62, 0.0233000
3610.14, 0.0233000
3612.65, 0.0234360
3615.17, 0.0235260
3617.69, 0.0236170
3620.22, 0.0237080
3622.75, 0.0237980
3625.28, 0.0237980
3627.82, 0.0239340
3630.36, 0.0240700
3632.9, 0.0241160
3635.45, 0.0242060
3638.0, 0.0242970
3640.56, 0.0243420
3643.12, 0.0244330
3645.68, 0.0244780
3648.24, 0.0245240
3650.81, 0.0246600
3653.39, 0.0247960
3655.96, 0.0247500
3658.54, 0.0247050
3661.13, 0.0247960
3663.71, 0.0249770
3666.3, 0.0251130
3668.9, 0.0251580
3671.5, 0.0252040
3674.1, 0.0252940
3676.7, 0.0253400
3679.31, 0.0254300
3681.93, 0.0254300
3684.54, 0.0254760
3687.17, 0.0255210
3689.79, 0.0256120
3692.42, 0.0257480
3695.05, 0.0257020
3697.69, 0.0257930
3700.32, 0.0259290
3702.97, 0.0260200
3705.61, 0.0260200
3708.27, 0.0261560
3710.92, 0.0262460
3713.58, 0.0262460
3716.24, 0.0263370
3718.91, 0.0265640
3721.58, 0.0266090
3724.25, 0.0266540
3726.93, 0.0267450
3729.61, 0.0268360
3732.29, 0.0268810
3734.98, 0.0269720
3737.67, 0.0269720
3740.37, 0.0270170
3743.07, 0.0271080
3745.78, 0.0271530
3748.49, 0.0271980
3751.2, 0.0272890
3753.91, 0.0272890
3756.63, 0.0272890
3759.36, 0.0274250
3762.09, 0.0275610
3764.82, 0.0275610
3767.55, 0.0275610
3770.29, 0.0276510
3773.04, 0.0277870
3775.78, 0.0278330
3778.54, 0.0279230
3781.29, 0.0279690
3784.05, 0.0279230
3786.82, 0.0279230
3789.59, 0.0280590
3792.36, 0.0281050
3795.13, 0.0281950
3797.92, 0.0281950
3800.7, 0.0281950
3803.49, 0.0281950
3806.28, 0.0281950
3809.08, 0.0282410
3811.88, 0.0282410
3814.68, 0.0282860
3817.49, 0.0283310
3820.31, 0.0283310
3823.12, 0.0283310
3825.94, 0.0282860
3828.77, 0.0282410
3831.6, 0.0283310
3834.43, 0.0283770
3837.27, 0.0284220
3840.11, 0.0283770
3842.96, 0.0283770
3845.81, 0.0283310
3848.67, 0.0282860
3851.53, 0.0282410
3854.39, 0.0281950
3857.26, 0.0281050
3860.13, 0.0279230
3863.01, 0.0275150
3865.89, 0.0270170
3868.77, 0.0265180
3871.66, 0.0264280
3874.55, 0.0268360
3877.45, 0.0273340
3880.35, 0.0276970
3883.26, 0.0280140
3886.17, 0.0281950
3889.09, 0.0282410
3892.01, 0.0282860
3894.93, 0.0282860
3897.86, 0.0282860
3900.79, 0.0282860
3903.73, 0.0282860
3906.67, 0.0282860
3909.62, 0.0282410
3912.57, 0.0282410
3915.52, 0.0281950
3918.48, 0.0281950
3921.45, 0.0281950
3924.42, 0.0281950
3927.39, 0.0281950
3930.37, 0.0281050
3933.35, 0.0281050
3936.34, 0.0281050
3939.33, 0.0280140
3942.32, 0.0279230
3945.32, 0.0279230
3948.33, 0.0279690
3951.34, 0.0279690
3954.35, 0.0278780
3957.37, 0.0277870
3960.39, 0.0276970
3963.42, 0.0276510
3966.45, 0.0275610
3969.49, 0.0275150
3972.53, 0.0274700
3975.58, 0.0274700
3978.63, 0.0274700
3981.68, 0.0274250
3984.75, 0.0273790
3987.81, 0.0272440
3990.88, 0.0271530
3993.95, 0.0270620
3997.03, 0.0270170
4000.12, 0.0269720
4003.21, 0.0268360
4006.3, 0.0267450
4009.4, 0.0267000
4012.5, 0.0266540
4015.61, 0.0265640
4018.72, 0.0264730
4021.84, 0.0262920
4024.96, 0.0262010
4028.09, 0.0261560
4031.22, 0.0260200
4034.36, 0.0258840
4037.5, 0.0257930
4040.65, 0.0256570
4043.8, 0.0255660
4046.96, 0.0254300
4050.12, 0.0253400
4053.29, 0.0252490
4056.46, 0.0251580
4059.64, 0.0250680
4062.82, 0.0248860
4066.0, 0.0247500
4069.19, 0.0246140
4072.39, 0.0245240
4075.59, 0.0243420
4078.8, 0.0242060
4082.01, 0.0241610
4085.23, 0.0241610
4088.45, 0.0241160
4091.68, 0.0239340
4094.91, 0.0238440
4098.15, 0.0237980
4101.39, 0.0236170
4104.63, 0.0234810
4107.89, 0.0233450
4111.14, 0.0232540
4114.41, 0.0232090
4117.67, 0.0231180
4120.95, 0.0230730
4124.23, 0.0229820
4127.51, 0.0228920
4130.8, 0.0228460
4134.09, 0.0228010
4137.39, 0.0228010
4140.7, 0.0227560
4144.01, 0.0226650
4147.32, 0.0226200
4150.64, 0.0226200
4153.97, 0.0227100
4157.3, 0.0227560
4160.64, 0.0227100
4163.98, 0.0226650
4167.33, 0.0225290
4170.68, 0.0225290
4174.04, 0.0225740
4177.4, 0.0225290
4180.77, 0.0224380
4184.14, 0.0224380
4187.52, 0.0224380
4190.91, 0.0223930
4194.3, 0.0223480
4197.69, 0.0221670
4201.1, 0.0219850
4204.5, 0.0218950
4207.92, 0.0218490
4211.34, 0.0217130
4214.76, 0.0214870
4218.19, 0.0212150
4221.62, 0.0210330
4225.06, 0.0208520
4228.51, 0.0207160
4231.96, 0.0205800
4235.42, 0.0203990
4238.88, 0.0200810
4242.35, 0.0199000
4245.83, 0.0197190
4249.31, 0.0194470
4252.79, 0.0193110
4256.28, 0.0192200
4259.78, 0.0190390
4263.29, 0.0188570
4266.79, 0.0187210
4270.31, 0.0184950
4273.83, 0.0183590
4277.35, 0.0182230
4280.89, 0.0180870
4284.42, 0.0179510
4287.97, 0.0178600
4291.52, 0.0177690
4295.07, 0.0176330
4298.63, 0.0174520
4302.2, 0.0172710
4305.78, 0.0170900
4309.35, 0.0168630
4312.94, 0.0165910
4316.53, 0.0163190
4320.13, 0.0160470
4323.73, 0.0157300
4327.34, 0.0154580
4330.96, 0.0151860
4334.58, 0.0149590
4338.21, 0.0148230
4341.84, 0.0147780
4345.48, 0.0147320
4349.12, 0.0145960
4352.77, 0.0144600
4356.43, 0.0144600
4360.1, 0.0143240
4363.76, 0.0142790
4367.44, 0.0143240
4371.12, 0.0142790
4374.81, 0.0142790
4378.51, 0.0143240
4382.21, 0.0143700
4385.92, 0.0144150
4389.63, 0.0144600
4393.35, 0.0144600
4397.08, 0.0145060
4400.81, 0.0145960
4404.55, 0.0146420
4408.29, 0.0146420
4412.04, 0.0145510
4415.8, 0.0145060
4419.57, 0.0144600
4423.34, 0.0144150
4427.12, 0.0143700
4430.9, 0.0142340
4434.69, 0.0141430
4438.49, 0.0140980
4442.29, 0.0140070
4446.1, 0.0139620
4449.92, 0.0139620
4453.74, 0.0139160
4457.57, 0.0139160
4461.41, 0.0138710
4465.25, 0.0138260
4469.1, 0.0137800
4472.95, 0.0136440
4476.82, 0.0135540
4480.69, 0.0135080
4484.56, 0.0134180
4488.44, 0.0134630
4492.33, 0.0135080
4496.23, 0.0135080
4500.13, 0.0134180
4504.04, 0.0133720
4507.96, 0.0134180
4511.88, 0.0135080
4515.81, 0.0135080
4519.75, 0.0135080
4523.69, 0.0135080
4527.65, 0.0134180
4531.6, 0.0133270
4535.57, 0.0133720
4539.54, 0.0133270
4543.52, 0.0132360
4547.5, 0.0131910
4551.5, 0.0132360
4555.5, 0.0132820
4559.5, 0.0131910
4563.52, 0.0131000
4567.54, 0.0131000
4571.56, 0.0131000
4575.6, 0.0130550
4579.64, 0.0129190
4583.69, 0.0128740
4587.75, 0.0128740
4591.81, 0.0129190
4595.88, 0.0128740
4599.96, 0.0128740
4604.04, 0.0130100
4608.14, 0.0131000
4612.24, 0.0131000
4616.34, 0.0131460
4620.46, 0.0132820
4624.58, 0.0133270
4628.71, 0.0133720
4632.84, 0.0135080
4636.99, 0.0135540
4641.14, 0.0136440
4645.3, 0.0138260
4649.47, 0.0139620
4653.64, 0.0140980
4657.82, 0.0141430
4662.01, 0.0141430
4666.21, 0.0140980
4670.41, 0.0140980
4674.62, 0.0140070
4678.84, 0.0139160
4683.07, 0.0139620
4687.3, 0.0139620
4691.54, 0.0139160
4695.79, 0.0138260
4700.05, 0.0138260
4704.31, 0.0137800
4708.59, 0.0136900
4712.87, 0.0135540
4717.15, 0.0135080
4721.45, 0.0135080
4725.76, 0.0135080
4730.07, 0.0135080
4734.39, 0.0136440
4738.72, 0.0137350
4743.05, 0.0139160
4747.39, 0.0142790
4751.75, 0.0147320
4756.1, 0.0151400
4760.47, 0.0155940
4764.85, 0.0162740
4769.23, 0.0171350
4773.62, 0.0182680
4778.02, 0.0195830
4782.43, 0.0210330
4786.85, 0.0223930
4791.27, 0.0236620
4795.7, 0.0247500
4800.14, 0.0255660
4804.59, 0.0263370
4809.05, 0.0270170
4813.51, 0.0275610
4817.99, 0.0280140
4822.47, 0.0282860
4826.96, 0.0283310
4831.46, 0.0280590
4835.96, 0.0275150
4840.48, 0.0267900
4845.0, 0.0262010
4849.54, 0.0261100
4854.08, 0.0266540
4858.63, 0.0276510
4863.18, 0.0290570
4867.75, 0.0303710
4872.33, 0.0312780
4876.91, 0.0317310
4881.5, 0.0321390
4886.1, 0.0326830
4890.71, 0.0336350
4895.33, 0.0347680
4899.96, 0.0357200
4904.59, 0.0364910
4909.24, 0.0371710
4913.89, 0.0377600
4918.55, 0.0383490
4923.22, 0.0388030
4927.9, 0.0392560
4932.59, 0.0396190
4937.29, 0.0399360
4942.0, 0.0402990
4946.71, 0.0406610
4951.44, 0.0408880
4956.17, 0.0410240
4960.91, 0.0411600
4965.67, 0.0412960
4970.43, 0.0413410
4975.2, 0.0414320
4979.98, 0.0415680
4984.76, 0.0416590
4989.56, 0.0417490
4994.37, 0.0418400
4999.18, 0.0419310
5004.01, 0.0420210
5008.84, 0.0420670
5013.69, 0.0421570
5018.54, 0.0422030
5023.4, 0.0422480
5028.28, 0.0422930
5033.16, 0.0422930
5038.05, 0.0422930
5042.95, 0.0422480
5047.86, 0.0422030
5052.78, 0.0421120
5057.71, 0.0420670
5062.65, 0.0421120
5067.6, 0.0419760
5072.56, 0.0418850
5077.53, 0.0418400
5082.5, 0.0417490
5087.49, 0.0416590
5092.49, 0.0415680
5097.5, 0.0414320
5102.51, 0.0413410
5107.54, 0.0412510
5112.58, 0.0412050
5117.62, 0.0410690
5122.68, 0.0409330
5127.75, 0.0407970
5132.82, 0.0407070
5137.91, 0.0405250
5143.01, 0.0403890
5148.12, 0.0403440
5153.23, 0.0402530
5158.36, 0.0401630
5163.5, 0.0401170
5168.65, 0.0400270
5173.81, 0.0398910
5178.98, 0.0398450
5184.15, 0.0397090
5189.34, 0.0395730
5194.54, 0.0395280
5199.75, 0.0394830
5204.98, 0.0394370
5210.21, 0.0393920
5215.45, 0.0393470
5220.7, 0.0392560
5225.96, 0.0392110
5231.23, 0.0390290
5236.52, 0.0388930
5241.81, 0.0388030
5247.12, 0.0385760
5252.44, 0.0383490
5257.76, 0.0382130
5263.1, 0.0379410
5268.45, 0.0377600
5273.81, 0.0376240
5279.18, 0.0375330
5284.56, 0.0373070
5289.95, 0.0371710
5295.36, 0.0369900
5300.77, 0.0368080
5306.2, 0.0366270
5311.63, 0.0364910
5317.08, 0.0364000
5322.54, 0.0363550
5328.01, 0.0362640
5333.49, 0.0361740
5338.98, 0.0360380
5344.49, 0.0359470
5350.0, 0.0359470
5355.53, 0.0358560
5361.07, 0.0357660
5366.62, 0.0357200
5372.18, 0.0356300
5377.75, 0.0354480
5383.34, 0.0352670
5388.93, 0.0351310
5394.54, 0.0349500
5400.16, 0.0348140
5405.79, 0.0344960
5411.44, 0.0342240
5417.09, 0.0339520
5422.76, 0.0337260
5428.43, 0.0333180
5434.12, 0.0329100
5439.83, 0.0324110
5445.54, 0.0319130
5451.26, 0.0314140
5457.0, 0.0309150
5462.75, 0.0302810
5468.52, 0.0297370
5474.29, 0.0291470
5480.08, 0.0286940
5485.88, 0.0281950
5491.69, 0.0277420
5497.51, 0.0273340
5503.35, 0.0269260
5509.2, 0.0265180
5515.06, 0.0262920
5520.93, 0.0262010
5526.82, 0.0259740
5532.71, 0.0256570
5538.63, 0.0254760
5544.55, 0.0253400
5550.49, 0.0252040
5556.44, 0.0251130
5562.4, 0.0250220
5568.37, 0.0249320
5574.36, 0.0247960
5580.36, 0.0247960
5586.37, 0.0246600
5592.4, 0.0244780
5598.44, 0.0243880
5604.49, 0.0242970
5610.56, 0.0241160
5616.63, 0.0239800
5622.73, 0.0238440
5628.83, 0.0236620
5634.95, 0.0235720
5641.08, 0.0234810
5647.23, 0.0232090
5653.39, 0.0228920
5659.56, 0.0226200
5665.74, 0.0223480
5671.94, 0.0221670
5678.15, 0.0219400
5684.38, 0.0217590
5690.62, 0.0216230
5696.87, 0.0214410
5703.14, 0.0211690
5709.42, 0.0209880
5715.72, 0.0208520
5722.03, 0.0206250
5728.35, 0.0203080
5734.69, 0.0200810
5741.03, 0.0197640
5747.4, 0.0194920
5753.78, 0.0193110
5760.17, 0.0190840
5766.58, 0.0189030
5773.0, 0.0185850
5779.44, 0.0182230
5785.88, 0.0179960
5792.35, 0.0177690
5798.83, 0.0174520
5805.32, 0.0171350
5811.83, 0.0168180
5818.35, 0.0165910
5824.89, 0.0163640
5831.45, 0.0161380
5838.01, 0.0157750
5844.59, 0.0154120
5851.19, 0.0151400
5857.8, 0.0148680
5864.43, 0.0145060
5871.07, 0.0141430
5877.73, 0.0139620
5884.4, 0.0136440
5891.09, 0.0132820
5897.79, 0.0130100
5904.5, 0.0127830
5911.23, 0.0125560
5917.98, 0.0123300
5924.75, 0.0122850
5931.53, 0.0122850
5938.32, 0.0121940
5945.13, 0.0121490
5951.96, 0.0120580
5958.8, 0.0120130
5965.65, 0.0121030
5972.53, 0.0120580
5979.42, 0.0119220
5986.32, 0.0119670
5993.24, 0.0119670
6000.18, 0.0118310
6007.13, 0.0117860
6014.1, 0.0117410
6021.08, 0.0116500
6028.09, 0.0115590
6035.1, 0.0115140
6042.14, 0.0114230
6049.19, 0.0113780
6056.25, 0.0112870
6063.34, 0.0111970
6070.44, 0.0111970
6077.55, 0.0111060
6084.69, 0.0110150
6091.84, 0.0110150
6099.0, 0.0109700
6106.19, 0.0109700
6113.39, 0.0110610
6120.61, 0.0111060
6127.84, 0.0110610
6135.09, 0.0109700
6142.36, 0.0110610
6149.65, 0.0111060
6156.95, 0.0110610
6164.27, 0.0110610
6171.61, 0.0111060
6178.97, 0.0111510
6186.34, 0.0112420
6193.73, 0.0112870
6201.14, 0.0113330
6208.57, 0.0113780
6216.01, 0.0114690
6223.47, 0.0115590
6230.95, 0.0115140
6238.45, 0.0115590
6245.97, 0.0116050
6253.5, 0.0116050
6261.06, 0.0116050
6268.63, 0.0116050
6276.21, 0.0115140
6283.82, 0.0115140
6291.45, 0.0115140
6299.1, 0.0115590
6306.76, 0.0115590
6314.44, 0.0115590
6322.14, 0.0115590
6329.86, 0.0115590
6337.6, 0.0115590
6345.35, 0.0116050
6353.13, 0.0116500
6360.92, 0.0116500
6368.74, 0.0116050
6376.57, 0.0116050
6384.43, 0.0116950
6392.3, 0.0117410
6400.19, 0.0117860
6408.1, 0.0119670
6416.03, 0.0120580
6423.98, 0.0119220
6431.95, 0.0118770
6439.94, 0.0118310
6447.95, 0.0117410
6455.98, 0.0116950
6464.03, 0.0116500
6472.1, 0.0115140
6480.19, 0.0113780
6488.31, 0.0113330
6496.44, 0.0112420
6504.59, 0.0111060
6512.76, 0.0109700
6520.95, 0.0108790
6529.16, 0.0106980
6537.4, 0.0104710
6545.65, 0.0102900
6553.92, 0.0101990
6562.22, 0.0100630
6570.54, 0.00992700
6578.88, 0.00979100
6587.23, 0.00965500
6595.61, 0.00947400
6604.02, 0.00938300
6612.44, 0.00933800
6620.89, 0.00929300
6629.35, 0.00924700
6637.84, 0.00911100
6646.35, 0.00902100
6654.88, 0.00888500
6663.44, 0.00874900
6672.01, 0.00861300
6680.61, 0.00861300
6689.23, 0.00856700
6697.88, 0.00847700
6706.54, 0.00834100
6715.23, 0.00820500
6723.94, 0.00811400
6732.67, 0.00806900
6741.42, 0.00806900
6750.2, 0.00802300
6759.0, 0.00793300
6767.82, 0.00793300
6776.67, 0.00793300
6785.54, 0.00802300
6794.44, 0.00793300
6803.35, 0.00784200
6812.29, 0.00788700
6821.26, 0.00788700
6830.24, 0.00788700
6839.25, 0.00788700
6848.29, 0.00784200
6857.35, 0.00793300
6866.43, 0.00793300
6875.54, 0.00775100
6884.67, 0.00761500
6893.82, 0.00752500
6903.0, 0.00761500
6912.2, 0.00752500
6921.43, 0.00738900
6930.69, 0.00729800
6939.96, 0.00720800
6949.27, 0.00720800
6958.59, 0.00711700
6967.95, 0.00702600
6977.33, 0.00693600
6986.73, 0.00689000
6996.16, 0.00689000
7005.61, 0.00684500
7015.09, 0.00666400
7024.6, 0.00675400
7034.13, 0.00675400
7043.69, 0.00670900
7053.27, 0.00670900
7062.88, 0.00670900
7072.52, 0.00666400
7082.18, 0.00661800
7091.87, 0.00657300
7101.58, 0.00661800
7111.32, 0.00661800
7121.09, 0.00652800
7130.88, 0.00648200
7140.71, 0.00652800
7150.56, 0.00652800
7160.43, 0.00643700
7170.33, 0.00643700
7180.27, 0.00634600
7190.23, 0.00625600
7200.21, 0.00616500
7210.23, 0.00602900
7220.27, 0.00593800
7230.34, 0.00589300
7240.44, 0.00584800
7250.56, 0.00580200
7260.72, 0.00562100
7270.9, 0.00548500
7281.12, 0.00539400
7291.36, 0.00530400
7301.63, 0.00516800
7311.93, 0.00521300
7322.25, 0.00516800
7332.61, 0.00507700
7343.0, 0.00489600
7353.41, 0.00476000
7363.86, 0.00476000
7374.33, 0.00462400
7384.83, 0.00448800
7395.37, 0.00439700
7405.93, 0.00426100
7416.53, 0.00412500
7427.15, 0.00403400
7437.81, 0.00398900
7448.5, 0.00385300
7459.22, 0.00376200
7469.96, 0.00371700
7480.74, 0.00362600
7491.55, 0.00353600
7502.39, 0.00344500
7513.27, 0.00340000
7524.17, 0.00340000
7535.11, 0.00330900
7546.08, 0.00321800
7557.08, 0.00321800
7568.11, 0.00326400
7579.17, 0.00340000
7590.27, 0.00344500
7601.4, 0.00362600
7612.56, 0.00385300
7623.76, 0.00412500
7634.98, 0.00453300
7646.24, 0.00512200
7657.54, 0.00580200
7668.87, 0.00670900
7680.23, 0.00775100
7691.62, 0.00902100
7703.05, 0.0104710
7714.51, 0.0122390
7726.01, 0.0143240
7737.54, 0.0164550
7749.11, 0.0187670
7760.71, 0.0212600
7772.35, 0.0237980
7784.02, 0.0262920
7795.72, 0.0287390
7807.46, 0.0307340
7819.23, 0.0322750
7831.04, 0.0332270
7842.89, 0.0336350
7854.77, 0.0336800
7866.69, 0.0334540
7878.65, 0.0330000
7890.64, 0.0325470
7902.67, 0.0318220
7914.74, 0.0311420
7926.84, 0.0303260
7938.98, 0.0294190
7951.16, 0.0284220
7963.37, 0.0273340
7975.62, 0.0263370
7987.91, 0.0253400
8000.24, 0.0243420
8012.6, 0.0233900
8025.01, 0.0224840
8037.45, 0.0217130
8049.93, 0.0210330
8062.45, 0.0204440
8075.01, 0.0198090
8087.61, 0.0194010
8100.24, 0.0190840
8112.91, 0.0187670
8125.63, 0.0184490
8138.39, 0.0182230
8151.18, 0.0181320
8164.02, 0.0180410
8176.9, 0.0179050
8189.81, 0.0179050
8202.77, 0.0179050
8215.77, 0.0179960
8228.82, 0.0182680
8241.9, 0.0187210
8255.02, 0.0193560
8268.19, 0.0200810
8281.39, 0.0210330
8294.65, 0.0221670
8307.94, 0.0233900
8321.28, 0.0249770
8334.66, 0.0268360
8348.08, 0.0289210
8361.54, 0.0310970
8375.05, 0.0336350
8388.6, 0.0366720
8402.2, 0.0399810
8415.84, 0.0434720
8429.52, 0.0475060
8443.25, 0.0520850
8457.02, 0.0574790
8470.84, 0.0638700
8484.7, 0.0711690
8498.61, 0.0797360
8512.57, 0.0898450
8526.57, 0.100996
8540.62, 0.112283
8554.71, 0.122120
8568.85, 0.128874
8583.04, 0.130687
8597.27, 0.125474
8611.55, 0.112147
8625.88, 0.0964630
8640.26, 0.0888470
8654.68, 0.0927910
8669.16, 0.102718
8683.68, 0.113235
8698.25, 0.122165
8712.87, 0.129554
8727.53, 0.135719
8742.25, 0.141068
8757.02, 0.145420
8771.83, 0.149046
8786.7, 0.152083
8801.62, 0.154848
8816.59, 0.157341
8831.61, 0.159744
8846.68, 0.161965
8861.8, 0.164050
8876.97, 0.165773
8892.2, 0.167405
8907.48, 0.169037
8922.81, 0.170442
8938.2, 0.171439
8953.63, 0.172210
8969.13, 0.172754
8984.67, 0.172980
9000.27, 0.172844
9015.92, 0.172618
9031.63, 0.172255
9047.39, 0.171892
9063.21, 0.171530
9079.08, 0.171077
9095.01, 0.170578
9111.0, 0.169989
9127.04, 0.169173
9143.13, 0.168357
9159.28, 0.167359
9175.49, 0.166136
9191.76, 0.164776
9208.09, 0.163144
9224.47, 0.160923
9240.92, 0.158021
9257.42, 0.154350
9273.98, 0.149545
9290.6, 0.143198
9307.28, 0.134676
9324.02, 0.123072
9340.82, 0.110198
9357.68, 0.0983670
9374.6, 0.0887570
9391.58, 0.0810510
9408.62, 0.0747500
9425.73, 0.0696270
9442.9, 0.0655020
9460.13, 0.0618760
9477.42, 0.0586570
9494.78, 0.0558020
9512.2, 0.0532630
9529.69, 0.0509510
9547.24, 0.0487750
9564.86, 0.0468260
9582.54, 0.0450130
9600.28, 0.0431540
9618.1, 0.0414320
9635.97, 0.0398910
9653.92, 0.0386210
9671.93, 0.0378050
9690.01, 0.0392560
9708.16, 0.0453300
9726.37, 0.0517670
9744.65, 0.0520390
9763.0, 0.0478230
9781.43, 0.0434720
9799.92, 0.0405250
9818.48, 0.0385760
9837.1, 0.0371260
9855.8, 0.0357660
9874.58, 0.0346780
9893.42, 0.0337710
9912.34, 0.0330460
9931.33, 0.0324110
9950.39, 0.0316410
9969.52, 0.0308700
9988.74, 0.0303710
10008.0, 0.0297370
10027.4, 0.0291930
10046.8, 0.0287850
10066.3, 0.0282410
10085.9, 0.0276970
10105.6, 0.0272890
10125.3, 0.0268810
10145.1, 0.0264730
10165.0, 0.0259290
10185.0, 0.0256120
10205.0, 0.0252940
10225.2, 0.0248860
10245.4, 0.0247960
10265.7, 0.0245240
10286.0, 0.0241610
10306.5, 0.0237980
10327.0, 0.0234360
10347.6, 0.0230280
10368.3, 0.0227560
10389.1, 0.0225290
10409.9, 0.0221670
10430.9, 0.0218490
10451.9, 0.0215320
10473.0, 0.0211240
10494.2, 0.0210330
10515.5, 0.0207610
10536.9, 0.0204440
10558.4, 0.0202170
10579.9, 0.0200810
10601.5, 0.0199910
10623.3, 0.0198550
10645.1, 0.0196280
10667.0, 0.0193560
10689.0, 0.0191290
10711.1, 0.0189480
10733.2, 0.0187210
10755.5, 0.0184950
10777.9, 0.0182680
10800.3, 0.0179510
10822.9, 0.0176790
10845.5, 0.0174970
10868.2, 0.0173620
10891.1, 0.0171350
10914.0, 0.0168180
10937.0, 0.0165460
10960.2, 0.0164100
10983.4, 0.0162280
11006.7, 0.0160020
11030.1, 0.0159110
11053.6, 0.0158200
11077.3, 0.0155940
11101.0, 0.0154120
11124.8, 0.0153670
11148.7, 0.0151400
11172.7, 0.0148680
11196.9, 0.0147780
11221.1, 0.0146420
11245.4, 0.0144150
11269.9, 0.0143700
11294.4, 0.0141880
11319.1, 0.0140070
11343.9, 0.0139620
11368.8, 0.0139160
11393.7, 0.0136900
11418.8, 0.0134630
11444.0, 0.0133720
11469.4, 0.0131910
11494.8, 0.0128740
11520.3, 0.0126470
11546.0, 0.0125110
11571.8, 0.0124210
11597.7, 0.0122390
11623.7, 0.0121940
11649.8, 0.0121030
11676.0, 0.0118770
11702.4, 0.0116500
11728.9, 0.0113330
11755.5, 0.0110610
11782.2, 0.0107430
11809.0, 0.0107430
11836.0, 0.0108340
11863.0, 0.0105620
11890.3, 0.0101990
11917.6, 0.0101990
11945.0, 0.0101090
11972.6, 0.00956500
12000.4, 0.00920200
12028.2, 0.00915700
12056.2, 0.00911100
12084.3, 0.00888500
12112.5, 0.00852200
12140.9, 0.00811400
12169.4, 0.00784200
12198.0, 0.00779700
12226.8, 0.00775100
12255.7, 0.00766100
12284.7, 0.00729800
12313.9, 0.00693600
12343.2, 0.00684500
12372.7, 0.00652800
12402.3, 0.00639200
12432.0, 0.00652800
12461.9, 0.00630100
12491.9, 0.00616500
12522.1, 0.00612000
12552.4, 0.00575700
12582.9, 0.00553000
12613.5, 0.00544000
12644.3, 0.00534900
12675.2, 0.00512200
12706.3, 0.00480500
12737.5, 0.00453300
12768.9, 0.00448800
12800.4, 0.00448800
12832.1, 0.00412500
12863.9, 0.00376200
12895.9, 0.00367200
12928.1, 0.00362600
12960.4, 0.00371700
12992.9, 0.00385300
13025.5, 0.00385300
13058.3, 0.00380800
13091.3, 0.00389800
13124.4, 0.00403400
13157.8, 0.00435200
13191.2, 0.00476000
13224.9, 0.00525800
13258.7, 0.00593800
13292.7, 0.00675400
13326.9, 0.00770600
13361.2, 0.00911100
13395.7, 0.0105620
13430.4, 0.0122390
13465.3, 0.0145060
13500.4, 0.0168630
13535.7, 0.0195830
13571.1, 0.0226200
13606.7, 0.0262010
13642.5, 0.0301450
13678.5, 0.0340880
13714.7, 0.0385310
13751.1, 0.0432000
13787.6, 0.0483220
13824.4, 0.0541700
13861.4, 0.0604250
13898.5, 0.0675870
13935.9, 0.0750220
13973.5, 0.0820930
14011.2, 0.0879860
14049.2, 0.0930180
14087.4, 0.0972790
14125.8, 0.100724
14164.3, 0.103262
14203.2, 0.105166
14242.2, 0.106980
14281.4, 0.108838
14320.9, 0.110062
14360.5, 0.111105
14400.4, 0.112011
14440.5, 0.112283
14480.9, 0.111966
14521.4, 0.111513
14562.2, 0.110198
14603.3, 0.107977
14644.5, 0.104758
14686.0, 0.100271
14727.7, 0.0950580
14769.7, 0.0891650
14811.9, 0.0827280
14854.3, 0.0762910
14897.0, 0.0697180
14939.9, 0.0639160
14983.1, 0.0582040
15026.5, 0.0524470
15070.2, 0.0468720
15114.2, 0.0416590
15158.3, 0.0364910
15202.8, 0.0317770
15247.5, 0.0287390
15292.5, 0.0276970
15337.7, 0.0291470
15383.2, 0.0327740
15429.0, 0.0392560
15475.1, 0.0513140
15521.4, 0.0676780
15568.0, 0.0825920
15614.9, 0.0934710
15662.1, 0.101676
15709.6, 0.107705
15757.3, 0.111830
15805.4, 0.114504
15853.7, 0.116590
15902.3, 0.117587
15951.2, 0.116952
16000.5, 0.113824
16050.0, 0.106889
16099.8, 0.0956920
16150.0, 0.0827280
16200.5, 0.0703530
16251.3, 0.0614680
16302.4, 0.0591560
16353.8, 0.0669980
16405.5, 0.0841330
16457.6, 0.105302
16510.0, 0.124794
16562.8, 0.139164
16615.9, 0.147414
16669.3, 0.150497
16723.1, 0.148910
16777.2, 0.142609
16831.7, 0.132772
16886.5, 0.121032
16941.7, 0.108611
16997.2, 0.0978680
17053.1, 0.0893910
17109.4, 0.0825010
17166.1, 0.0770160
17223.1, 0.0724830
17280.5, 0.0682670
17338.3, 0.0646860
17396.5, 0.0614230
17455.1, 0.0582490
17514.0, 0.0558020
17573.4, 0.0537160
17633.2, 0.0516310
17693.4, 0.0498180
17754.0, 0.0477780
17815.0, 0.0459200
17876.4, 0.0450130
17938.3, 0.0437890
18000.5, 0.0422480
18063.3, 0.0406610
18126.4, 0.0388030
18190.0, 0.0376240
18254.1, 0.0366270
18318.6, 0.0358560
18383.5, 0.0347230
18449.0, 0.0337260
18514.9, 0.0329550
18581.2, 0.0325020
18648.0, 0.0332270
18715.4, 0.0354940
18783.2, 0.0385760
18851.5, 0.0414770
18920.3, 0.0436980
18989.6, 0.0445140
19059.4, 0.0448320
19129.7, 0.0441060
19200.6, 0.0432450
19272.0, 0.0422030
19343.9, 0.0402530
19416.3, 0.0388930
19489.3, 0.0376240
19562.8, 0.0365360
19637.0, 0.0355390
19711.6, 0.0343600
19786.8, 0.0332720
19862.6, 0.0321850
19939.0, 0.0312330
20016.0, 0.0315500
20093.6, 0.0312330
20171.8, 0.0303260
20250.6, 0.0288750
20330.0, 0.0282410
20410.0, 0.0286490
20490.7, 0.0305070
20572.0, 0.0315500
20654.0, 0.0313690
20736.6, 0.0302350
20819.9, 0.0288750
20903.8, 0.0265640
20988.5, 0.0249320
21073.8, 0.0257020
21159.8, 0.0263370
21246.5, 0.0253850
21334.0, 0.0230730
21422.1, 0.0213960
21511.0, 0.0215770
21600.7, 0.0213510
21691.0, 0.0197190
21782.1, 0.0186760
21874.0, 0.0180410
21966.7, 0.0186760
22060.2, 0.0196730
22154.5, 0.0201270
22249.6, 0.0208070
22345.5, 0.0231640
22442.2, 0.0271080
22539.8, 0.0313690
22638.2, 0.0368990
22737.5, 0.0413410
22837.7, 0.0439250
22938.7, 0.0458290
23040.7, 0.0460100
23143.5, 0.0464220
23247.3, 0.0461320
23352.1, 0.0457300
23457.7, 0.0445340
23564.4, 0.0427870
23672.0, 0.0409000
23780.5, 0.0395080
23890.1, 0.0379860
24000.7, 0.0362480
24112.3, 0.0342300
24225.0, 0.0323330
24338.7, 0.0307270
24453.5, 0.0291380
24569.4, 0.0272980
24686.4, 0.0256160
24804.5, 0.0244490
24923.8, 0.0229730
25044.2, 0.0209450
25165.8, 0.0199830
25288.6, 0.0188620
25412.5, 0.0166390
25537.7, 0.0145830
25664.1, 0.0136860
25791.8, 0.0133030
25920.8, 0.0141350
26051.1, 0.0189650
26182.6, 0.0309130
26315.5, 0.0519710
26449.8, 0.0779800
26585.4, 0.0997000
26722.5, 0.116012
26860.9, 0.128428
27000.8, 0.137032
27142.1, 0.143076
27285.0, 0.147467
27429.4, 0.149392
27575.3, 0.148766
27722.7, 0.142422
27871.8, 0.129343
28022.4, 0.109902
28174.7, 0.0886390
28328.7, 0.0717300
28484.4, 0.0600800
28641.7, 0.0524940
28800.9, 0.0471130
28961.8, 0.0419000
29124.5, 0.0371730
29289.0, 0.0335390
29455.4, 0.0303440
29623.8, 0.0289520
29794.0, 0.0324550
29966.3, 0.0434230
30140.5, 0.0585480
30316.7, 0.0699170
30495.1, 0.0745790
30675.5, 0.0745320
30858.1, 0.0703100
31042.8, 0.0650310
31229.8, 0.0596030
31419.1, 0.0540070
31610.7, 0.0496730
31804.6, 0.0466180
32000.9, 0.0439650
32199.7, 0.0417220
32400.9, 0.0401900
32604.8, 0.0376870
32811.1, 0.0353320
33020.1, 0.0330430
33231.8, 0.0301850
33446.2, 0.0278680
33663.4, 0.0242900
33883.4, 0.0220380
34106.3, 0.0299420
34332.1, 0.0504850
34561.0, 0.0726270
34792.9, 0.0827720
35028.0, 0.0795960
35266.3, 0.0701600
35507.8, 0.0619110
35752.7, 0.0549980
36001.0, 0.0504570
36252.8, 0.0493640
36508.1, 0.0478420
36767.0, 0.0450480
37029.7, 0.0431050
37296.1, 0.0429840
37566.3, 0.0421150
37840.5, 0.0402460
38118.8, 0.0388170
38401.2, 0.0374060
38687.8, 0.0364070
38978.6, 0.0364810
39273.9, 0.0352300
39573.7, 0.0339680
39878.1, 0.0329590
40187.3, 0.0313250
40501.2, 0.0311470
40820.0, 0.0311750
41144.0, 0.0301660
41473.2, 0.0279240
41807.6, 0.0252800
42147.5, 0.0232250
42493.0, 0.0209170
42844.2, 0.0193200
43201.2, 0.0301570
43564.3, 0.0572490
43933.5, 0.0759240
44309.0, 0.0695250
44691.0, 0.0568190
45079.6, 0.0488880
45475.0, 0.0448800
45877.5, 0.0430770
46287.1, 0.0409750
46704.2, 0.0378080
47128.7, 0.0358840
47561.1, 0.0353510
48001.5, 0.0354720
48450.1, 0.0345660
48907.2, 0.0328570
49373.0, 0.0314930
49847.7, 0.0314460
50331.5, 0.0303900
50825.0, 0.0278020
51328.2, 0.0250090
51841.5, 0.0241400
52365.1, 0.0265970
52899.4, 0.0332580
53444.8, 0.0405170
54001.5, 0.0477580
54570.1, 0.0522880
55150.6, 0.0534000
55743.6, 0.0515690
56349.5, 0.0458800
56968.7, 0.0417130
57601.7, 0.0404800
58248.9, 0.0391440
58910.9, 0.0377710
59588.1, 0.0365000
60281.0, 0.0354540
60990.2, 0.0345380
61716.3, 0.0343330
62459.8, 0.0341740
63221.6, 0.0331840
64002.1, 0.0335670
64802.1, 0.0334920
65622.1, 0.0347160
66463.4, 0.0417130
67326.6, 0.0337250
68212.4, 0.0300910
69121.9, 0.0310160
70056.0, 0.0279800
71015.7, 0.0256070
72002.0, 0.0232530
73016.3, 0.0199740
74059.4, 0.0177130
75132.7, 0.0263080
76237.6, 0.0523350
77375.5, 0.0721780
78547.9, 0.0751120
79756.3, 0.0653400
81002.5, 0.0554650
82288.5, 0.0508970
83615.7, 0.0497660
84986.5, 0.0492990
86402.9, 0.0478880
87867.4, 0.0427030
89382.4, 0.0407790
90950.5, 0.0429280
92574.6, 0.0436470
94257.2, 0.0440770
96002.7, 0.0469540
97814.1, 0.0475800
99695.1, 0.0480750
101650.0, 0.0485240
103683.0, 0.0494200
105799.0, 0.0501490
108003.0, 0.0472530
110301.0, 0.0486640
112699.0, 0.0477760
115204.0, 0.0455810
117822.0, 0.0482150
120562.0, 0.0511670
123433.0, 0.0491120
126443.0, 0.0508030
129604.0, 0.0557820
132926.0, 0.0562220
136424.0, 0.0565300
140111.0, 0.0579030
144003.0, 0.0583890
148118.0, 0.0617050
152474.0, 0.0668340
157095.0, 0.0809690
162004.0, 0.0908720
167231.0, 0.0866770
172805.0, 0.0831550
178764.0, 0.0751120
185148.0, 0.0796050
192005.0, 0.0882000
199390.0, 0.108305
207366.0, 0.134902
216006.0, 0.195514
