Database of Origin, USGS Spectral Database
Sample Description, See USGS database for additional info
Date Added,2016-08-03 21:17:37.337421

Data ID,USGS_chr07          
Sample ID, chrysotile_ml99-12c.5250
Mineral Name, chrysotile
Material Class,Phyllosilicate

Wavelength
350.0, 0.0868880
351.0, 0.0868880
352.0, 0.0868880
353.0, 0.0868880
354.0, 0.0868880
355.0, 0.0874960
356.0, 0.0880650
357.0, 0.0885540
358.0, 0.0889460
359.0, 0.0893050
360.0, 0.0897150
361.0, 0.0902380
362.0, 0.0908340
363.0, 0.0914400
364.0, 0.0920060
365.0, 0.0925300
366.0, 0.0930200
367.0, 0.0934900
368.0, 0.0939570
369.0, 0.0944430
370.0, 0.0949620
371.0, 0.0954950
372.0, 0.0960160
373.0, 0.0965040
374.0, 0.0969660
375.0, 0.0974110
376.0, 0.0978520
377.0, 0.0982950
378.0, 0.0987470
379.0, 0.0992090
380.0, 0.0996500
381.0, 0.100034
382.0, 0.100341
383.0, 0.100616
384.0, 0.100920
385.0, 0.101299
386.0, 0.101731
387.0, 0.102180
388.0, 0.102616
389.0, 0.103041
390.0, 0.103464
391.0, 0.103890
392.0, 0.104327
393.0, 0.104777
394.0, 0.105240
395.0, 0.105693
396.0, 0.106109
397.0, 0.106470
398.0, 0.106790
399.0, 0.107091
400.0, 0.107389
401.0, 0.107679
402.0, 0.107948
403.0, 0.108191
404.0, 0.108417
405.0, 0.108643
406.0, 0.108882
407.0, 0.109129
408.0, 0.109374
409.0, 0.109611
410.0, 0.109849
411.0, 0.110095
412.0, 0.110357
413.0, 0.110631
414.0, 0.110912
415.0, 0.111195
416.0, 0.111484
417.0, 0.111787
418.0, 0.112106
419.0, 0.112436
420.0, 0.112771
421.0, 0.113103
422.0, 0.113427
423.0, 0.113742
424.0, 0.114045
425.0, 0.114348
426.0, 0.114663
427.0, 0.114998
428.0, 0.115341
429.0, 0.115677
430.0, 0.115994
431.0, 0.116292
432.0, 0.116576
433.0, 0.116850
434.0, 0.117118
435.0, 0.117384
436.0, 0.117647
437.0, 0.117903
438.0, 0.118144
439.0, 0.118365
440.0, 0.118579
441.0, 0.118799
442.0, 0.119037
443.0, 0.119290
444.0, 0.119548
445.0, 0.119807
446.0, 0.120068
447.0, 0.120336
448.0, 0.120613
449.0, 0.120893
450.0, 0.121167
451.0, 0.121430
452.0, 0.121690
453.0, 0.121959
454.0, 0.122244
455.0, 0.122538
456.0, 0.122826
457.0, 0.123101
458.0, 0.123372
459.0, 0.123649
460.0, 0.123945
461.0, 0.124263
462.0, 0.124607
463.0, 0.124978
464.0, 0.125371
465.0, 0.125779
466.0, 0.126198
467.0, 0.126634
468.0, 0.127092
469.0, 0.127578
470.0, 0.128083
471.0, 0.128598
472.0, 0.129111
473.0, 0.129621
474.0, 0.130124
475.0, 0.130616
476.0, 0.131096
477.0, 0.131560
478.0, 0.132005
479.0, 0.132435
480.0, 0.132854
481.0, 0.133268
482.0, 0.133671
483.0, 0.134061
484.0, 0.134434
485.0, 0.134790
486.0, 0.135132
487.0, 0.135462
488.0, 0.135777
489.0, 0.136078
490.0, 0.136362
491.0, 0.136636
492.0, 0.136907
493.0, 0.137183
494.0, 0.137470
495.0, 0.137777
496.0, 0.138107
497.0, 0.138460
498.0, 0.138831
499.0, 0.139215
500.0, 0.139605
501.0, 0.139992
502.0, 0.140371
503.0, 0.140743
504.0, 0.141110
505.0, 0.141474
506.0, 0.141831
507.0, 0.142176
508.0, 0.142507
509.0, 0.142824
510.0, 0.143132
511.0, 0.143434
512.0, 0.143731
513.0, 0.144024
514.0, 0.144311
515.0, 0.144591
516.0, 0.144860
517.0, 0.145114
518.0, 0.145357
519.0, 0.145589
520.0, 0.145812
521.0, 0.146028
522.0, 0.146238
523.0, 0.146442
524.0, 0.146642
525.0, 0.146841
526.0, 0.147039
527.0, 0.147234
528.0, 0.147425
529.0, 0.147610
530.0, 0.147792
531.0, 0.147975
532.0, 0.148161
533.0, 0.148349
534.0, 0.148534
535.0, 0.148714
536.0, 0.148890
537.0, 0.149065
538.0, 0.149241
539.0, 0.149418
540.0, 0.149594
541.0, 0.149768
542.0, 0.149937
543.0, 0.150102
544.0, 0.150261
545.0, 0.150415
546.0, 0.150566
547.0, 0.150715
548.0, 0.150862
549.0, 0.151008
550.0, 0.151151
551.0, 0.151292
552.0, 0.151428
553.0, 0.151559
554.0, 0.151686
555.0, 0.151810
556.0, 0.151930
557.0, 0.152047
558.0, 0.152157
559.0, 0.152259
560.0, 0.152353
561.0, 0.152440
562.0, 0.152519
563.0, 0.152592
564.0, 0.152662
565.0, 0.152729
566.0, 0.152793
567.0, 0.152851
568.0, 0.152902
569.0, 0.152947
570.0, 0.152989
571.0, 0.153030
572.0, 0.153068
573.0, 0.153104
574.0, 0.153137
575.0, 0.153166
576.0, 0.153190
577.0, 0.153209
578.0, 0.153223
579.0, 0.153231
580.0, 0.153234
581.0, 0.153233
582.0, 0.153229
583.0, 0.153225
584.0, 0.153219
585.0, 0.153213
586.0, 0.153205
587.0, 0.153197
588.0, 0.153187
589.0, 0.153176
590.0, 0.153162
591.0, 0.153143
592.0, 0.153118
593.0, 0.153089
594.0, 0.153059
595.0, 0.153031
596.0, 0.153003
597.0, 0.152974
598.0, 0.152946
599.0, 0.152919
600.0, 0.152898
601.0, 0.152884
602.0, 0.152878
603.0, 0.152882
604.0, 0.152894
605.0, 0.152916
606.0, 0.152951
607.0, 0.152997
608.0, 0.153050
609.0, 0.153102
610.0, 0.153147
611.0, 0.153176
612.0, 0.153179
613.0, 0.153151
614.0, 0.153094
615.0, 0.153012
616.0, 0.152910
617.0, 0.152794
618.0, 0.152667
619.0, 0.152534
620.0, 0.152398
621.0, 0.152262
622.0, 0.152126
623.0, 0.151990
624.0, 0.151854
625.0, 0.151714
626.0, 0.151573
627.0, 0.151430
628.0, 0.151287
629.0, 0.151149
630.0, 0.151021
631.0, 0.150909
632.0, 0.150808
633.0, 0.150715
634.0, 0.150626
635.0, 0.150538
636.0, 0.150450
637.0, 0.150361
638.0, 0.150269
639.0, 0.150176
640.0, 0.150080
641.0, 0.149981
642.0, 0.149882
643.0, 0.149782
644.0, 0.149679
645.0, 0.149570
646.0, 0.149454
647.0, 0.149332
648.0, 0.149208
649.0, 0.149084
650.0, 0.148962
651.0, 0.148841
652.0, 0.148722
653.0, 0.148602
654.0, 0.148480
655.0, 0.148354
656.0, 0.148226
657.0, 0.148098
658.0, 0.147972
659.0, 0.147848
660.0, 0.147725
661.0, 0.147604
662.0, 0.147483
663.0, 0.147360
664.0, 0.147236
665.0, 0.147110
666.0, 0.146986
667.0, 0.146863
668.0, 0.146742
669.0, 0.146623
670.0, 0.146506
671.0, 0.146391
672.0, 0.146277
673.0, 0.146163
674.0, 0.146049
675.0, 0.145934
676.0, 0.145819
677.0, 0.145704
678.0, 0.145589
679.0, 0.145475
680.0, 0.145364
681.0, 0.145254
682.0, 0.145147
683.0, 0.145041
684.0, 0.144937
685.0, 0.144834
686.0, 0.144732
687.0, 0.144633
688.0, 0.144535
689.0, 0.144440
690.0, 0.144345
691.0, 0.144252
692.0, 0.144158
693.0, 0.144063
694.0, 0.143967
695.0, 0.143869
696.0, 0.143768
697.0, 0.143665
698.0, 0.143562
699.0, 0.143459
700.0, 0.143357
701.0, 0.143257
702.0, 0.143158
703.0, 0.143062
704.0, 0.142967
705.0, 0.142872
706.0, 0.142776
707.0, 0.142679
708.0, 0.142583
709.0, 0.142487
710.0, 0.142392
711.0, 0.142298
712.0, 0.142205
713.0, 0.142113
714.0, 0.142023
715.0, 0.141934
716.0, 0.141845
717.0, 0.141755
718.0, 0.141664
719.0, 0.141571
720.0, 0.141477
721.0, 0.141383
722.0, 0.141291
723.0, 0.141203
724.0, 0.141122
725.0, 0.141045
726.0, 0.140972
727.0, 0.140901
728.0, 0.140832
729.0, 0.140764
730.0, 0.140697
731.0, 0.140632
732.0, 0.140569
733.0, 0.140510
734.0, 0.140453
735.0, 0.140399
736.0, 0.140347
737.0, 0.140296
738.0, 0.140248
739.0, 0.140203
740.0, 0.140159
741.0, 0.140117
742.0, 0.140075
743.0, 0.140035
744.0, 0.139999
745.0, 0.139968
746.0, 0.139941
747.0, 0.139919
748.0, 0.139900
749.0, 0.139884
750.0, 0.139869
751.0, 0.139857
752.0, 0.139845
753.0, 0.139833
754.0, 0.139822
755.0, 0.139812
756.0, 0.139804
757.0, 0.139800
758.0, 0.139802
759.0, 0.139809
760.0, 0.139822
761.0, 0.139840
762.0, 0.139860
763.0, 0.139882
764.0, 0.139905
765.0, 0.139929
766.0, 0.139955
767.0, 0.139981
768.0, 0.140010
769.0, 0.140040
770.0, 0.140072
771.0, 0.140107
772.0, 0.140145
773.0, 0.140185
774.0, 0.140228
775.0, 0.140272
776.0, 0.140317
777.0, 0.140363
778.0, 0.140410
779.0, 0.140458
780.0, 0.140507
781.0, 0.140557
782.0, 0.140608
783.0, 0.140658
784.0, 0.140709
785.0, 0.140759
786.0, 0.140809
787.0, 0.140860
788.0, 0.140912
789.0, 0.140965
790.0, 0.141019
791.0, 0.141073
792.0, 0.141126
793.0, 0.141178
794.0, 0.141229
795.0, 0.141279
796.0, 0.141330
797.0, 0.141380
798.0, 0.141430
799.0, 0.141480
800.0, 0.141527
801.0, 0.141573
802.0, 0.141617
803.0, 0.141657
804.0, 0.141695
805.0, 0.141730
806.0, 0.141762
807.0, 0.141792
808.0, 0.141820
809.0, 0.141846
810.0, 0.141871
811.0, 0.141893
812.0, 0.141914
813.0, 0.141934
814.0, 0.141954
815.0, 0.141973
816.0, 0.141990
817.0, 0.142005
818.0, 0.142017
819.0, 0.142026
820.0, 0.142030
821.0, 0.142030
822.0, 0.142028
823.0, 0.142025
824.0, 0.142018
825.0, 0.142007
826.0, 0.141991
827.0, 0.141971
828.0, 0.141947
829.0, 0.141920
830.0, 0.141890
831.0, 0.141859
832.0, 0.141825
833.0, 0.141789
834.0, 0.141750
835.0, 0.141708
836.0, 0.141664
837.0, 0.141617
838.0, 0.141569
839.0, 0.141519
840.0, 0.141468
841.0, 0.141417
842.0, 0.141366
843.0, 0.141312
844.0, 0.141256
845.0, 0.141199
846.0, 0.141141
847.0, 0.141083
848.0, 0.141025
849.0, 0.140965
850.0, 0.140904
851.0, 0.140841
852.0, 0.140776
853.0, 0.140709
854.0, 0.140641
855.0, 0.140573
856.0, 0.140506
857.0, 0.140439
858.0, 0.140371
859.0, 0.140301
860.0, 0.140229
861.0, 0.140157
862.0, 0.140086
863.0, 0.140015
864.0, 0.139945
865.0, 0.139876
866.0, 0.139809
867.0, 0.139741
868.0, 0.139671
869.0, 0.139602
870.0, 0.139533
871.0, 0.139466
872.0, 0.139400
873.0, 0.139335
874.0, 0.139271
875.0, 0.139207
876.0, 0.139142
877.0, 0.139078
878.0, 0.139013
879.0, 0.138950
880.0, 0.138887
881.0, 0.138824
882.0, 0.138762
883.0, 0.138700
884.0, 0.138639
885.0, 0.138577
886.0, 0.138516
887.0, 0.138457
888.0, 0.138398
889.0, 0.138341
890.0, 0.138285
891.0, 0.138230
892.0, 0.138175
893.0, 0.138121
894.0, 0.138066
895.0, 0.138011
896.0, 0.137956
897.0, 0.137904
898.0, 0.137854
899.0, 0.137809
900.0, 0.137767
901.0, 0.137730
902.0, 0.137696
903.0, 0.137665
904.0, 0.137635
905.0, 0.137608
906.0, 0.137582
907.0, 0.137558
908.0, 0.137535
909.0, 0.137514
910.0, 0.137491
911.0, 0.137469
912.0, 0.137446
913.0, 0.137423
914.0, 0.137399
915.0, 0.137376
916.0, 0.137354
917.0, 0.137332
918.0, 0.137312
919.0, 0.137293
920.0, 0.137276
921.0, 0.137261
922.0, 0.137249
923.0, 0.137240
924.0, 0.137232
925.0, 0.137225
926.0, 0.137221
927.0, 0.137217
928.0, 0.137216
929.0, 0.137217
930.0, 0.137219
931.0, 0.137223
932.0, 0.137224
933.0, 0.137222
934.0, 0.137213
935.0, 0.137192
936.0, 0.137156
937.0, 0.137100
938.0, 0.137022
939.0, 0.136922
940.0, 0.136798
941.0, 0.136660
942.0, 0.136520
943.0, 0.136388
944.0, 0.136276
945.0, 0.136192
946.0, 0.136145
947.0, 0.136130
948.0, 0.136141
949.0, 0.136172
950.0, 0.136221
951.0, 0.136284
952.0, 0.136360
953.0, 0.136446
954.0, 0.136539
955.0, 0.136636
956.0, 0.136734
957.0, 0.136830
958.0, 0.136921
959.0, 0.137007
960.0, 0.137087
961.0, 0.137160
962.0, 0.137228
963.0, 0.137292
964.0, 0.137353
965.0, 0.137411
966.0, 0.137467
967.0, 0.137519
968.0, 0.137569
969.0, 0.137617
970.0, 0.137662
971.0, 0.137706
972.0, 0.137749
973.0, 0.137791
974.0, 0.137832
975.0, 0.137870
976.0, 0.137905
977.0, 0.137937
978.0, 0.137967
979.0, 0.137995
980.0, 0.138023
981.0, 0.138051
982.0, 0.138079
983.0, 0.138107
984.0, 0.138134
985.0, 0.138159
986.0, 0.138183
987.0, 0.138204
988.0, 0.138223
989.0, 0.138243
990.0, 0.138267
991.0, 0.138295
992.0, 0.138325
993.0, 0.138351
994.0, 0.138370
995.0, 0.138383
996.0, 0.138394
997.0, 0.138405
998.0, 0.138412
999.0, 0.138412
1000.0, 0.138401
1001.0, 0.138384
1002.0, 0.138367
1003.0, 0.138355
1004.0, 0.138353
1005.0, 0.138367
1006.0, 0.138399
1007.0, 0.138432
1008.0, 0.138446
1009.0, 0.138430
1010.0, 0.138398
1011.0, 0.138373
1012.0, 0.138373
1013.0, 0.138391
1014.0, 0.138416
1015.0, 0.138434
1016.0, 0.138439
1017.0, 0.138435
1018.0, 0.138426
1019.0, 0.138416
1020.0, 0.138403
1021.0, 0.138387
1022.0, 0.138366
1023.0, 0.138345
1024.0, 0.138326
1025.0, 0.138311
1026.0, 0.138301
1027.0, 0.138294
1028.0, 0.138290
1029.0, 0.138287
1030.0, 0.138285
1031.0, 0.138282
1032.0, 0.138279
1033.0, 0.138274
1034.0, 0.138269
1035.0, 0.138264
1036.0, 0.138260
1037.0, 0.138257
1038.0, 0.138255
1039.0, 0.138252
1040.0, 0.138248
1041.0, 0.138241
1042.0, 0.138229
1043.0, 0.138210
1044.0, 0.138186
1045.0, 0.138158
1046.0, 0.138128
1047.0, 0.138098
1048.0, 0.138069
1049.0, 0.138043
1050.0, 0.138020
1051.0, 0.138000
1052.0, 0.137981
1053.0, 0.137962
1054.0, 0.137943
1055.0, 0.137922
1056.0, 0.137898
1057.0, 0.137871
1058.0, 0.137841
1059.0, 0.137810
1060.0, 0.137779
1061.0, 0.137749
1062.0, 0.137721
1063.0, 0.137697
1064.0, 0.137675
1065.0, 0.137656
1066.0, 0.137639
1067.0, 0.137621
1068.0, 0.137602
1069.0, 0.137580
1070.0, 0.137554
1071.0, 0.137525
1072.0, 0.137493
1073.0, 0.137459
1074.0, 0.137424
1075.0, 0.137389
1076.0, 0.137356
1077.0, 0.137326
1078.0, 0.137298
1079.0, 0.137273
1080.0, 0.137249
1081.0, 0.137225
1082.0, 0.137199
1083.0, 0.137172
1084.0, 0.137141
1085.0, 0.137108
1086.0, 0.137073
1087.0, 0.137037
1088.0, 0.137000
1089.0, 0.136965
1090.0, 0.136930
1091.0, 0.136898
1092.0, 0.136867
1093.0, 0.136837
1094.0, 0.136808
1095.0, 0.136780
1096.0, 0.136753
1097.0, 0.136726
1098.0, 0.136700
1099.0, 0.136674
1100.0, 0.136648
1101.0, 0.136623
1102.0, 0.136599
1103.0, 0.136577
1104.0, 0.136556
1105.0, 0.136536
1106.0, 0.136519
1107.0, 0.136502
1108.0, 0.136485
1109.0, 0.136469
1110.0, 0.136453
1111.0, 0.136438
1112.0, 0.136423
1113.0, 0.136409
1114.0, 0.136395
1115.0, 0.136383
1116.0, 0.136371
1117.0, 0.136359
1118.0, 0.136346
1119.0, 0.136333
1120.0, 0.136318
1121.0, 0.136301
1122.0, 0.136282
1123.0, 0.136260
1124.0, 0.136236
1125.0, 0.136210
1126.0, 0.136182
1127.0, 0.136153
1128.0, 0.136123
1129.0, 0.136093
1130.0, 0.136063
1131.0, 0.136035
1132.0, 0.136006
1133.0, 0.135979
1134.0, 0.135951
1135.0, 0.135923
1136.0, 0.135894
1137.0, 0.135864
1138.0, 0.135833
1139.0, 0.135800
1140.0, 0.135766
1141.0, 0.135732
1142.0, 0.135696
1143.0, 0.135662
1144.0, 0.135628
1145.0, 0.135595
1146.0, 0.135565
1147.0, 0.135538
1148.0, 0.135513
1149.0, 0.135491
1150.0, 0.135471
1151.0, 0.135453
1152.0, 0.135437
1153.0, 0.135423
1154.0, 0.135409
1155.0, 0.135396
1156.0, 0.135383
1157.0, 0.135371
1158.0, 0.135358
1159.0, 0.135346
1160.0, 0.135334
1161.0, 0.135322
1162.0, 0.135312
1163.0, 0.135304
1164.0, 0.135299
1165.0, 0.135296
1166.0, 0.135297
1167.0, 0.135300
1168.0, 0.135306
1169.0, 0.135314
1170.0, 0.135323
1171.0, 0.135332
1172.0, 0.135340
1173.0, 0.135348
1174.0, 0.135355
1175.0, 0.135361
1176.0, 0.135366
1177.0, 0.135370
1178.0, 0.135374
1179.0, 0.135378
1180.0, 0.135384
1181.0, 0.135393
1182.0, 0.135403
1183.0, 0.135416
1184.0, 0.135430
1185.0, 0.135447
1186.0, 0.135464
1187.0, 0.135482
1188.0, 0.135501
1189.0, 0.135521
1190.0, 0.135542
1191.0, 0.135564
1192.0, 0.135587
1193.0, 0.135612
1194.0, 0.135639
1195.0, 0.135667
1196.0, 0.135697
1197.0, 0.135727
1198.0, 0.135758
1199.0, 0.135788
1200.0, 0.135817
1201.0, 0.135845
1202.0, 0.135871
1203.0, 0.135896
1204.0, 0.135921
1205.0, 0.135946
1206.0, 0.135972
1207.0, 0.135999
1208.0, 0.136028
1209.0, 0.136058
1210.0, 0.136090
1211.0, 0.136124
1212.0, 0.136158
1213.0, 0.136193
1214.0, 0.136228
1215.0, 0.136264
1216.0, 0.136299
1217.0, 0.136334
1218.0, 0.136369
1219.0, 0.136404
1220.0, 0.136439
1221.0, 0.136475
1222.0, 0.136512
1223.0, 0.136548
1224.0, 0.136585
1225.0, 0.136623
1226.0, 0.136660
1227.0, 0.136698
1228.0, 0.136738
1229.0, 0.136778
1230.0, 0.136819
1231.0, 0.136862
1232.0, 0.136905
1233.0, 0.136950
1234.0, 0.136995
1235.0, 0.137040
1236.0, 0.137084
1237.0, 0.137127
1238.0, 0.137169
1239.0, 0.137210
1240.0, 0.137248
1241.0, 0.137285
1242.0, 0.137319
1243.0, 0.137352
1244.0, 0.137382
1245.0, 0.137411
1246.0, 0.137437
1247.0, 0.137461
1248.0, 0.137483
1249.0, 0.137503
1250.0, 0.137519
1251.0, 0.137534
1252.0, 0.137545
1253.0, 0.137554
1254.0, 0.137561
1255.0, 0.137566
1256.0, 0.137569
1257.0, 0.137570
1258.0, 0.137570
1259.0, 0.137569
1260.0, 0.137566
1261.0, 0.137563
1262.0, 0.137558
1263.0, 0.137552
1264.0, 0.137545
1265.0, 0.137537
1266.0, 0.137528
1267.0, 0.137517
1268.0, 0.137505
1269.0, 0.137491
1270.0, 0.137475
1271.0, 0.137458
1272.0, 0.137438
1273.0, 0.137416
1274.0, 0.137393
1275.0, 0.137369
1276.0, 0.137345
1277.0, 0.137322
1278.0, 0.137301
1279.0, 0.137284
1280.0, 0.137272
1281.0, 0.137268
1282.0, 0.137274
1283.0, 0.137290
1284.0, 0.137319
1285.0, 0.137361
1286.0, 0.137417
1287.0, 0.137485
1288.0, 0.137566
1289.0, 0.137656
1290.0, 0.137755
1291.0, 0.137860
1292.0, 0.137968
1293.0, 0.138077
1294.0, 0.138185
1295.0, 0.138290
1296.0, 0.138390
1297.0, 0.138485
1298.0, 0.138573
1299.0, 0.138655
1300.0, 0.138730
1301.0, 0.138798
1302.0, 0.138861
1303.0, 0.138917
1304.0, 0.138969
1305.0, 0.139017
1306.0, 0.139060
1307.0, 0.139101
1308.0, 0.139139
1309.0, 0.139176
1310.0, 0.139212
1311.0, 0.139246
1312.0, 0.139280
1313.0, 0.139314
1314.0, 0.139348
1315.0, 0.139380
1316.0, 0.139411
1317.0, 0.139441
1318.0, 0.139469
1319.0, 0.139495
1320.0, 0.139519
1321.0, 0.139541
1322.0, 0.139560
1323.0, 0.139578
1324.0, 0.139595
1325.0, 0.139610
1326.0, 0.139623
1327.0, 0.139635
1328.0, 0.139645
1329.0, 0.139653
1330.0, 0.139660
1331.0, 0.139664
1332.0, 0.139666
1333.0, 0.139665
1334.0, 0.139661
1335.0, 0.139653
1336.0, 0.139640
1337.0, 0.139620
1338.0, 0.139592
1339.0, 0.139554
1340.0, 0.139504
1341.0, 0.139438
1342.0, 0.139354
1343.0, 0.139249
1344.0, 0.139122
1345.0, 0.138970
1346.0, 0.138793
1347.0, 0.138591
1348.0, 0.138366
1349.0, 0.138121
1350.0, 0.137859
1351.0, 0.137587
1352.0, 0.137311
1353.0, 0.137036
1354.0, 0.136772
1355.0, 0.136525
1356.0, 0.136300
1357.0, 0.136105
1358.0, 0.135941
1359.0, 0.135810
1360.0, 0.135710
1361.0, 0.135639
1362.0, 0.135587
1363.0, 0.135544
1364.0, 0.135498
1365.0, 0.135431
1366.0, 0.135321
1367.0, 0.135148
1368.0, 0.134888
1369.0, 0.134516
1370.0, 0.134008
1371.0, 0.133346
1372.0, 0.132514
1373.0, 0.131499
1374.0, 0.130304
1375.0, 0.128935
1376.0, 0.127403
1377.0, 0.125741
1378.0, 0.123980
1379.0, 0.122157
1380.0, 0.120321
1381.0, 0.118521
1382.0, 0.116802
1383.0, 0.115208
1384.0, 0.113781
1385.0, 0.112554
1386.0, 0.111548
1387.0, 0.110783
1388.0, 0.110269
1389.0, 0.110002
1390.0, 0.109976
1391.0, 0.110181
1392.0, 0.110595
1393.0, 0.111198
1394.0, 0.111965
1395.0, 0.112870
1396.0, 0.113886
1397.0, 0.114988
1398.0, 0.116151
1399.0, 0.117352
1400.0, 0.118570
1401.0, 0.119789
1402.0, 0.120994
1403.0, 0.122170
1404.0, 0.123312
1405.0, 0.124411
1406.0, 0.125463
1407.0, 0.126463
1408.0, 0.127411
1409.0, 0.128304
1410.0, 0.129141
1411.0, 0.129921
1412.0, 0.130643
1413.0, 0.131307
1414.0, 0.131913
1415.0, 0.132462
1416.0, 0.132955
1417.0, 0.133395
1418.0, 0.133786
1419.0, 0.134131
1420.0, 0.134436
1421.0, 0.134704
1422.0, 0.134942
1423.0, 0.135154
1424.0, 0.135344
1425.0, 0.135518
1426.0, 0.135679
1427.0, 0.135829
1428.0, 0.135971
1429.0, 0.136105
1430.0, 0.136235
1431.0, 0.136359
1432.0, 0.136479
1433.0, 0.136594
1434.0, 0.136706
1435.0, 0.136815
1436.0, 0.136919
1437.0, 0.137021
1438.0, 0.137119
1439.0, 0.137214
1440.0, 0.137306
1441.0, 0.137394
1442.0, 0.137480
1443.0, 0.137562
1444.0, 0.137641
1445.0, 0.137717
1446.0, 0.137789
1447.0, 0.137858
1448.0, 0.137923
1449.0, 0.137986
1450.0, 0.138046
1451.0, 0.138104
1452.0, 0.138160
1453.0, 0.138214
1454.0, 0.138267
1455.0, 0.138318
1456.0, 0.138369
1457.0, 0.138418
1458.0, 0.138467
1459.0, 0.138516
1460.0, 0.138565
1461.0, 0.138615
1462.0, 0.138665
1463.0, 0.138716
1464.0, 0.138767
1465.0, 0.138820
1466.0, 0.138874
1467.0, 0.138928
1468.0, 0.138984
1469.0, 0.139039
1470.0, 0.139095
1471.0, 0.139151
1472.0, 0.139207
1473.0, 0.139263
1474.0, 0.139318
1475.0, 0.139373
1476.0, 0.139428
1477.0, 0.139483
1478.0, 0.139539
1479.0, 0.139595
1480.0, 0.139652
1481.0, 0.139710
1482.0, 0.139769
1483.0, 0.139830
1484.0, 0.139891
1485.0, 0.139952
1486.0, 0.140014
1487.0, 0.140077
1488.0, 0.140138
1489.0, 0.140200
1490.0, 0.140260
1491.0, 0.140320
1492.0, 0.140379
1493.0, 0.140436
1494.0, 0.140491
1495.0, 0.140546
1496.0, 0.140598
1497.0, 0.140649
1498.0, 0.140698
1499.0, 0.140744
1500.0, 0.140789
1501.0, 0.140831
1502.0, 0.140872
1503.0, 0.140910
1504.0, 0.140946
1505.0, 0.140982
1506.0, 0.141016
1507.0, 0.141050
1508.0, 0.141085
1509.0, 0.141120
1510.0, 0.141156
1511.0, 0.141193
1512.0, 0.141231
1513.0, 0.141270
1514.0, 0.141309
1515.0, 0.141349
1516.0, 0.141390
1517.0, 0.141430
1518.0, 0.141470
1519.0, 0.141511
1520.0, 0.141551
1521.0, 0.141592
1522.0, 0.141632
1523.0, 0.141674
1524.0, 0.141715
1525.0, 0.141758
1526.0, 0.141801
1527.0, 0.141845
1528.0, 0.141890
1529.0, 0.141935
1530.0, 0.141981
1531.0, 0.142027
1532.0, 0.142073
1533.0, 0.142119
1534.0, 0.142165
1535.0, 0.142210
1536.0, 0.142255
1537.0, 0.142298
1538.0, 0.142341
1539.0, 0.142382
1540.0, 0.142421
1541.0, 0.142460
1542.0, 0.142496
1543.0, 0.142532
1544.0, 0.142566
1545.0, 0.142599
1546.0, 0.142633
1547.0, 0.142666
1548.0, 0.142699
1549.0, 0.142733
1550.0, 0.142768
1551.0, 0.142803
1552.0, 0.142839
1553.0, 0.142875
1554.0, 0.142910
1555.0, 0.142944
1556.0, 0.142978
1557.0, 0.143010
1558.0, 0.143042
1559.0, 0.143072
1560.0, 0.143101
1561.0, 0.143129
1562.0, 0.143157
1563.0, 0.143184
1564.0, 0.143211
1565.0, 0.143238
1566.0, 0.143265
1567.0, 0.143290
1568.0, 0.143316
1569.0, 0.143340
1570.0, 0.143364
1571.0, 0.143387
1572.0, 0.143410
1573.0, 0.143431
1574.0, 0.143452
1575.0, 0.143472
1576.0, 0.143491
1577.0, 0.143509
1578.0, 0.143526
1579.0, 0.143543
1580.0, 0.143558
1581.0, 0.143573
1582.0, 0.143587
1583.0, 0.143600
1584.0, 0.143613
1585.0, 0.143625
1586.0, 0.143638
1587.0, 0.143650
1588.0, 0.143663
1589.0, 0.143677
1590.0, 0.143691
1591.0, 0.143704
1592.0, 0.143718
1593.0, 0.143732
1594.0, 0.143745
1595.0, 0.143758
1596.0, 0.143770
1597.0, 0.143781
1598.0, 0.143792
1599.0, 0.143802
1600.0, 0.143812
1601.0, 0.143822
1602.0, 0.143832
1603.0, 0.143842
1604.0, 0.143851
1605.0, 0.143860
1606.0, 0.143868
1607.0, 0.143876
1608.0, 0.143883
1609.0, 0.143890
1610.0, 0.143895
1611.0, 0.143900
1612.0, 0.143904
1613.0, 0.143908
1614.0, 0.143911
1615.0, 0.143915
1616.0, 0.143919
1617.0, 0.143923
1618.0, 0.143928
1619.0, 0.143933
1620.0, 0.143938
1621.0, 0.143943
1622.0, 0.143948
1623.0, 0.143952
1624.0, 0.143954
1625.0, 0.143955
1626.0, 0.143954
1627.0, 0.143951
1628.0, 0.143946
1629.0, 0.143940
1630.0, 0.143933
1631.0, 0.143925
1632.0, 0.143916
1633.0, 0.143908
1634.0, 0.143900
1635.0, 0.143893
1636.0, 0.143886
1637.0, 0.143881
1638.0, 0.143876
1639.0, 0.143872
1640.0, 0.143868
1641.0, 0.143864
1642.0, 0.143861
1643.0, 0.143856
1644.0, 0.143851
1645.0, 0.143845
1646.0, 0.143837
1647.0, 0.143827
1648.0, 0.143816
1649.0, 0.143802
1650.0, 0.143787
1651.0, 0.143770
1652.0, 0.143751
1653.0, 0.143731
1654.0, 0.143712
1655.0, 0.143693
1656.0, 0.143674
1657.0, 0.143657
1658.0, 0.143642
1659.0, 0.143628
1660.0, 0.143615
1661.0, 0.143604
1662.0, 0.143593
1663.0, 0.143581
1664.0, 0.143569
1665.0, 0.143556
1666.0, 0.143540
1667.0, 0.143523
1668.0, 0.143504
1669.0, 0.143484
1670.0, 0.143463
1671.0, 0.143442
1672.0, 0.143421
1673.0, 0.143400
1674.0, 0.143381
1675.0, 0.143363
1676.0, 0.143347
1677.0, 0.143332
1678.0, 0.143319
1679.0, 0.143308
1680.0, 0.143297
1681.0, 0.143286
1682.0, 0.143275
1683.0, 0.143262
1684.0, 0.143249
1685.0, 0.143233
1686.0, 0.143216
1687.0, 0.143198
1688.0, 0.143178
1689.0, 0.143157
1690.0, 0.143135
1691.0, 0.143114
1692.0, 0.143092
1693.0, 0.143070
1694.0, 0.143048
1695.0, 0.143026
1696.0, 0.143003
1697.0, 0.142979
1698.0, 0.142954
1699.0, 0.142928
1700.0, 0.142899
1701.0, 0.142869
1702.0, 0.142838
1703.0, 0.142805
1704.0, 0.142772
1705.0, 0.142739
1706.0, 0.142706
1707.0, 0.142673
1708.0, 0.142639
1709.0, 0.142606
1710.0, 0.142572
1711.0, 0.142538
1712.0, 0.142502
1713.0, 0.142465
1714.0, 0.142426
1715.0, 0.142386
1716.0, 0.142344
1717.0, 0.142301
1718.0, 0.142257
1719.0, 0.142213
1720.0, 0.142168
1721.0, 0.142122
1722.0, 0.142077
1723.0, 0.142031
1724.0, 0.141985
1725.0, 0.141939
1726.0, 0.141892
1727.0, 0.141843
1728.0, 0.141793
1729.0, 0.141742
1730.0, 0.141689
1731.0, 0.141635
1732.0, 0.141580
1733.0, 0.141524
1734.0, 0.141468
1735.0, 0.141412
1736.0, 0.141356
1737.0, 0.141300
1738.0, 0.141246
1739.0, 0.141192
1740.0, 0.141140
1741.0, 0.141089
1742.0, 0.141040
1743.0, 0.140991
1744.0, 0.140942
1745.0, 0.140892
1746.0, 0.140842
1747.0, 0.140789
1748.0, 0.140733
1749.0, 0.140676
1750.0, 0.140617
1751.0, 0.140558
1752.0, 0.140499
1753.0, 0.140443
1754.0, 0.140389
1755.0, 0.140338
1756.0, 0.140291
1757.0, 0.140247
1758.0, 0.140206
1759.0, 0.140167
1760.0, 0.140127
1761.0, 0.140087
1762.0, 0.140045
1763.0, 0.140001
1764.0, 0.139955
1765.0, 0.139906
1766.0, 0.139856
1767.0, 0.139807
1768.0, 0.139758
1769.0, 0.139711
1770.0, 0.139668
1771.0, 0.139629
1772.0, 0.139593
1773.0, 0.139562
1774.0, 0.139534
1775.0, 0.139507
1776.0, 0.139482
1777.0, 0.139455
1778.0, 0.139426
1779.0, 0.139396
1780.0, 0.139365
1781.0, 0.139332
1782.0, 0.139295
1783.0, 0.139254
1784.0, 0.139207
1785.0, 0.139162
1786.0, 0.139122
1787.0, 0.139093
1788.0, 0.139071
1789.0, 0.139054
1790.0, 0.139037
1791.0, 0.139018
1792.0, 0.138995
1793.0, 0.138966
1794.0, 0.138929
1795.0, 0.138887
1796.0, 0.138840
1797.0, 0.138796
1798.0, 0.138762
1799.0, 0.138745
1800.0, 0.138744
1801.0, 0.138755
1802.0, 0.138775
1803.0, 0.138797
1804.0, 0.138813
1805.0, 0.138817
1806.0, 0.138806
1807.0, 0.138780
1808.0, 0.138740
1809.0, 0.138691
1810.0, 0.138640
1811.0, 0.138594
1812.0, 0.138555
1813.0, 0.138524
1814.0, 0.138502
1815.0, 0.138488
1816.0, 0.138482
1817.0, 0.138483
1818.0, 0.138488
1819.0, 0.138496
1820.0, 0.138507
1821.0, 0.138517
1822.0, 0.138527
1823.0, 0.138533
1824.0, 0.138536
1825.0, 0.138536
1826.0, 0.138534
1827.0, 0.138530
1828.0, 0.138526
1829.0, 0.138520
1830.0, 0.138514
1831.0, 0.138504
1832.0, 0.138490
1833.0, 0.138472
1834.0, 0.138449
1835.0, 0.138423
1836.0, 0.138392
1837.0, 0.138356
1838.0, 0.138313
1839.0, 0.138264
1840.0, 0.138208
1841.0, 0.138147
1842.0, 0.138081
1843.0, 0.138011
1844.0, 0.137938
1845.0, 0.137862
1846.0, 0.137784
1847.0, 0.137704
1848.0, 0.137623
1849.0, 0.137539
1850.0, 0.137454
1851.0, 0.137367
1852.0, 0.137280
1853.0, 0.137193
1854.0, 0.137107
1855.0, 0.137025
1856.0, 0.136947
1857.0, 0.136873
1858.0, 0.136802
1859.0, 0.136732
1860.0, 0.136662
1861.0, 0.136591
1862.0, 0.136517
1863.0, 0.136438
1864.0, 0.136351
1865.0, 0.136253
1866.0, 0.136142
1867.0, 0.136014
1868.0, 0.135865
1869.0, 0.135695
1870.0, 0.135501
1871.0, 0.135283
1872.0, 0.135043
1873.0, 0.134782
1874.0, 0.134504
1875.0, 0.134211
1876.0, 0.133906
1877.0, 0.133594
1878.0, 0.133275
1879.0, 0.132953
1880.0, 0.132629
1881.0, 0.132304
1882.0, 0.131980
1883.0, 0.131655
1884.0, 0.131329
1885.0, 0.131002
1886.0, 0.130671
1887.0, 0.130336
1888.0, 0.129996
1889.0, 0.129649
1890.0, 0.129295
1891.0, 0.128936
1892.0, 0.128574
1893.0, 0.128208
1894.0, 0.127840
1895.0, 0.127469
1896.0, 0.127094
1897.0, 0.126715
1898.0, 0.126334
1899.0, 0.125950
1900.0, 0.125565
1901.0, 0.125180
1902.0, 0.124798
1903.0, 0.124419
1904.0, 0.124043
1905.0, 0.123672
1906.0, 0.123306
1907.0, 0.122947
1908.0, 0.122598
1909.0, 0.122260
1910.0, 0.121938
1911.0, 0.121636
1912.0, 0.121354
1913.0, 0.121094
1914.0, 0.120856
1915.0, 0.120640
1916.0, 0.120444
1917.0, 0.120268
1918.0, 0.120110
1919.0, 0.119971
1920.0, 0.119849
1921.0, 0.119743
1922.0, 0.119648
1923.0, 0.119561
1924.0, 0.119481
1925.0, 0.119408
1926.0, 0.119341
1927.0, 0.119278
1928.0, 0.119220
1929.0, 0.119166
1930.0, 0.119116
1931.0, 0.119069
1932.0, 0.119024
1933.0, 0.118981
1934.0, 0.118939
1935.0, 0.118895
1936.0, 0.118852
1937.0, 0.118810
1938.0, 0.118771
1939.0, 0.118733
1940.0, 0.118695
1941.0, 0.118655
1942.0, 0.118613
1943.0, 0.118567
1944.0, 0.118518
1945.0, 0.118466
1946.0, 0.118412
1947.0, 0.118359
1948.0, 0.118305
1949.0, 0.118252
1950.0, 0.118198
1951.0, 0.118143
1952.0, 0.118084
1953.0, 0.118019
1954.0, 0.117950
1955.0, 0.117879
1956.0, 0.117809
1957.0, 0.117740
1958.0, 0.117671
1959.0, 0.117603
1960.0, 0.117535
1961.0, 0.117467
1962.0, 0.117397
1963.0, 0.117326
1964.0, 0.117257
1965.0, 0.117190
1966.0, 0.117126
1967.0, 0.117065
1968.0, 0.117007
1969.0, 0.116953
1970.0, 0.116903
1971.0, 0.116858
1972.0, 0.116818
1973.0, 0.116784
1974.0, 0.116758
1975.0, 0.116738
1976.0, 0.116723
1977.0, 0.116710
1978.0, 0.116701
1979.0, 0.116698
1980.0, 0.116703
1981.0, 0.116717
1982.0, 0.116738
1983.0, 0.116763
1984.0, 0.116794
1985.0, 0.116829
1986.0, 0.116871
1987.0, 0.116919
1988.0, 0.116977
1989.0, 0.117048
1990.0, 0.117129
1991.0, 0.117220
1992.0, 0.117316
1993.0, 0.117418
1994.0, 0.117529
1995.0, 0.117650
1996.0, 0.117781
1997.0, 0.117917
1998.0, 0.118057
1999.0, 0.118202
2000.0, 0.118354
2001.0, 0.118516
2002.0, 0.118687
2003.0, 0.118862
2004.0, 0.119039
2005.0, 0.119215
2006.0, 0.119389
2007.0, 0.119560
2008.0, 0.119726
2009.0, 0.119888
2010.0, 0.120045
2011.0, 0.120197
2012.0, 0.120343
2013.0, 0.120483
2014.0, 0.120617
2015.0, 0.120744
2016.0, 0.120866
2017.0, 0.120980
2018.0, 0.121084
2019.0, 0.121177
2020.0, 0.121260
2021.0, 0.121335
2022.0, 0.121407
2023.0, 0.121476
2024.0, 0.121544
2025.0, 0.121615
2026.0, 0.121687
2027.0, 0.121760
2028.0, 0.121836
2029.0, 0.121912
2030.0, 0.121987
2031.0, 0.122062
2032.0, 0.122139
2033.0, 0.122222
2034.0, 0.122316
2035.0, 0.122420
2036.0, 0.122534
2037.0, 0.122654
2038.0, 0.122781
2039.0, 0.122916
2040.0, 0.123058
2041.0, 0.123209
2042.0, 0.123370
2043.0, 0.123541
2044.0, 0.123721
2045.0, 0.123908
2046.0, 0.124099
2047.0, 0.124294
2048.0, 0.124493
2049.0, 0.124695
2050.0, 0.124898
2051.0, 0.125100
2052.0, 0.125296
2053.0, 0.125485
2054.0, 0.125664
2055.0, 0.125830
2056.0, 0.125984
2057.0, 0.126128
2058.0, 0.126262
2059.0, 0.126388
2060.0, 0.126505
2061.0, 0.126612
2062.0, 0.126708
2063.0, 0.126790
2064.0, 0.126857
2065.0, 0.126907
2066.0, 0.126940
2067.0, 0.126955
2068.0, 0.126951
2069.0, 0.126927
2070.0, 0.126880
2071.0, 0.126811
2072.0, 0.126719
2073.0, 0.126605
2074.0, 0.126469
2075.0, 0.126310
2076.0, 0.126130
2077.0, 0.125929
2078.0, 0.125710
2079.0, 0.125477
2080.0, 0.125229
2081.0, 0.124964
2082.0, 0.124683
2083.0, 0.124387
2084.0, 0.124086
2085.0, 0.123786
2086.0, 0.123488
2087.0, 0.123192
2088.0, 0.122897
2089.0, 0.122608
2090.0, 0.122336
2091.0, 0.122089
2092.0, 0.121870
2093.0, 0.121678
2094.0, 0.121512
2095.0, 0.121370
2096.0, 0.121252
2097.0, 0.121155
2098.0, 0.121081
2099.0, 0.121030
2100.0, 0.121003
2101.0, 0.120996
2102.0, 0.121006
2103.0, 0.121027
2104.0, 0.121056
2105.0, 0.121087
2106.0, 0.121116
2107.0, 0.121139
2108.0, 0.121155
2109.0, 0.121163
2110.0, 0.121163
2111.0, 0.121153
2112.0, 0.121133
2113.0, 0.121100
2114.0, 0.121048
2115.0, 0.120971
2116.0, 0.120874
2117.0, 0.120764
2118.0, 0.120649
2119.0, 0.120529
2120.0, 0.120405
2121.0, 0.120275
2122.0, 0.120146
2123.0, 0.120031
2124.0, 0.119942
2125.0, 0.119884
2126.0, 0.119860
2127.0, 0.119873
2128.0, 0.119921
2129.0, 0.119996
2130.0, 0.120094
2131.0, 0.120214
2132.0, 0.120356
2133.0, 0.120523
2134.0, 0.120709
2135.0, 0.120908
2136.0, 0.121111
2137.0, 0.121315
2138.0, 0.121518
2139.0, 0.121718
2140.0, 0.121917
2141.0, 0.122119
2142.0, 0.122327
2143.0, 0.122542
2144.0, 0.122760
2145.0, 0.122978
2146.0, 0.123192
2147.0, 0.123401
2148.0, 0.123602
2149.0, 0.123795
2150.0, 0.123981
2151.0, 0.124161
2152.0, 0.124335
2153.0, 0.124499
2154.0, 0.124652
2155.0, 0.124794
2156.0, 0.124927
2157.0, 0.125051
2158.0, 0.125166
2159.0, 0.125273
2160.0, 0.125370
2161.0, 0.125461
2162.0, 0.125548
2163.0, 0.125633
2164.0, 0.125716
2165.0, 0.125792
2166.0, 0.125854
2167.0, 0.125903
2168.0, 0.125942
2169.0, 0.125974
2170.0, 0.125999
2171.0, 0.126017
2172.0, 0.126028
2173.0, 0.126034
2174.0, 0.126038
2175.0, 0.126043
2176.0, 0.126051
2177.0, 0.126059
2178.0, 0.126066
2179.0, 0.126072
2180.0, 0.126071
2181.0, 0.126062
2182.0, 0.126046
2183.0, 0.126026
2184.0, 0.126007
2185.0, 0.125990
2186.0, 0.125976
2187.0, 0.125965
2188.0, 0.125953
2189.0, 0.125937
2190.0, 0.125912
2191.0, 0.125881
2192.0, 0.125851
2193.0, 0.125826
2194.0, 0.125805
2195.0, 0.125781
2196.0, 0.125749
2197.0, 0.125708
2198.0, 0.125665
2199.0, 0.125625
2200.0, 0.125584
2201.0, 0.125541
2202.0, 0.125489
2203.0, 0.125430
2204.0, 0.125366
2205.0, 0.125297
2206.0, 0.125222
2207.0, 0.125139
2208.0, 0.125047
2209.0, 0.124941
2210.0, 0.124819
2211.0, 0.124678
2212.0, 0.124516
2213.0, 0.124331
2214.0, 0.124124
2215.0, 0.123893
2216.0, 0.123640
2217.0, 0.123362
2218.0, 0.123060
2219.0, 0.122731
2220.0, 0.122374
2221.0, 0.121988
2222.0, 0.121571
2223.0, 0.121124
2224.0, 0.120649
2225.0, 0.120147
2226.0, 0.119622
2227.0, 0.119079
2228.0, 0.118523
2229.0, 0.117958
2230.0, 0.117392
2231.0, 0.116828
2232.0, 0.116274
2233.0, 0.115733
2234.0, 0.115210
2235.0, 0.114710
2236.0, 0.114235
2237.0, 0.113789
2238.0, 0.113371
2239.0, 0.112974
2240.0, 0.112592
2241.0, 0.112220
2242.0, 0.111860
2243.0, 0.111516
2244.0, 0.111191
2245.0, 0.110882
2246.0, 0.110585
2247.0, 0.110299
2248.0, 0.110024
2249.0, 0.109760
2250.0, 0.109507
2251.0, 0.109264
2252.0, 0.109030
2253.0, 0.108800
2254.0, 0.108566
2255.0, 0.108318
2256.0, 0.108048
2257.0, 0.107755
2258.0, 0.107438
2259.0, 0.107095
2260.0, 0.106723
2261.0, 0.106320
2262.0, 0.105887
2263.0, 0.105432
2264.0, 0.104966
2265.0, 0.104496
2266.0, 0.104037
2267.0, 0.103601
2268.0, 0.103194
2269.0, 0.102821
2270.0, 0.102481
2271.0, 0.102176
2272.0, 0.101905
2273.0, 0.101667
2274.0, 0.101457
2275.0, 0.101272
2276.0, 0.101103
2277.0, 0.100946
2278.0, 0.100790
2279.0, 0.100628
2280.0, 0.100453
2281.0, 0.100261
2282.0, 0.100050
2283.0, 0.0998170
2284.0, 0.0995600
2285.0, 0.0992780
2286.0, 0.0989740
2287.0, 0.0986530
2288.0, 0.0983200
2289.0, 0.0979770
2290.0, 0.0976270
2291.0, 0.0972710
2292.0, 0.0969060
2293.0, 0.0965300
2294.0, 0.0961380
2295.0, 0.0957310
2296.0, 0.0953090
2297.0, 0.0948710
2298.0, 0.0944180
2299.0, 0.0939500
2300.0, 0.0934660
2301.0, 0.0929630
2302.0, 0.0924390
2303.0, 0.0918900
2304.0, 0.0913140
2305.0, 0.0907080
2306.0, 0.0900720
2307.0, 0.0894040
2308.0, 0.0887050
2309.0, 0.0879740
2310.0, 0.0872130
2311.0, 0.0864220
2312.0, 0.0856030
2313.0, 0.0847590
2314.0, 0.0839000
2315.0, 0.0830330
2316.0, 0.0821700
2317.0, 0.0813260
2318.0, 0.0805150
2319.0, 0.0797520
2320.0, 0.0790540
2321.0, 0.0784340
2322.0, 0.0779030
2323.0, 0.0774690
2324.0, 0.0771370
2325.0, 0.0769040
2326.0, 0.0767640
2327.0, 0.0767090
2328.0, 0.0767250
2329.0, 0.0767950
2330.0, 0.0769040
2331.0, 0.0770440
2332.0, 0.0772070
2333.0, 0.0773880
2334.0, 0.0775970
2335.0, 0.0778480
2336.0, 0.0781550
2337.0, 0.0785350
2338.0, 0.0790060
2339.0, 0.0795840
2340.0, 0.0802820
2341.0, 0.0811090
2342.0, 0.0820730
2343.0, 0.0831570
2344.0, 0.0843410
2345.0, 0.0856040
2346.0, 0.0869110
2347.0, 0.0882280
2348.0, 0.0895210
2349.0, 0.0907620
2350.0, 0.0919230
2351.0, 0.0929830
2352.0, 0.0939350
2353.0, 0.0947780
2354.0, 0.0955100
2355.0, 0.0961320
2356.0, 0.0966450
2357.0, 0.0970510
2358.0, 0.0973580
2359.0, 0.0975730
2360.0, 0.0977050
2361.0, 0.0977530
2362.0, 0.0977160
2363.0, 0.0975950
2364.0, 0.0973960
2365.0, 0.0971270
2366.0, 0.0967960
2367.0, 0.0964120
2368.0, 0.0959880
2369.0, 0.0955320
2370.0, 0.0950600
2371.0, 0.0945870
2372.0, 0.0941290
2373.0, 0.0936960
2374.0, 0.0933020
2375.0, 0.0929560
2376.0, 0.0926610
2377.0, 0.0924150
2378.0, 0.0922160
2379.0, 0.0920600
2380.0, 0.0919380
2381.0, 0.0918440
2382.0, 0.0917680
2383.0, 0.0916990
2384.0, 0.0916300
2385.0, 0.0915550
2386.0, 0.0914720
2387.0, 0.0913800
2388.0, 0.0912770
2389.0, 0.0911630
2390.0, 0.0910380
2391.0, 0.0909060
2392.0, 0.0907730
2393.0, 0.0906440
2394.0, 0.0905220
2395.0, 0.0904080
2396.0, 0.0903060
2397.0, 0.0902220
2398.0, 0.0901620
2399.0, 0.0901320
2400.0, 0.0901290
2401.0, 0.0901490
2402.0, 0.0901880
2403.0, 0.0902390
2404.0, 0.0902960
2405.0, 0.0903520
2406.0, 0.0904010
2407.0, 0.0904350
2408.0, 0.0904470
2409.0, 0.0904360
2410.0, 0.0904000
2411.0, 0.0903380
2412.0, 0.0902530
2413.0, 0.0901460
2414.0, 0.0900210
2415.0, 0.0898740
2416.0, 0.0897040
2417.0, 0.0895090
2418.0, 0.0893000
2419.0, 0.0890890
2420.0, 0.0888850
2421.0, 0.0886920
2422.0, 0.0885140
2423.0, 0.0883510
2424.0, 0.0882010
2425.0, 0.0880590
2426.0, 0.0879220
2427.0, 0.0877960
2428.0, 0.0876830
2429.0, 0.0875890
2430.0, 0.0875160
2431.0, 0.0874640
2432.0, 0.0874340
2433.0, 0.0874210
2434.0, 0.0874210
2435.0, 0.0874290
2436.0, 0.0874520
2437.0, 0.0874960
2438.0, 0.0875650
2439.0, 0.0876540
2440.0, 0.0877530
2441.0, 0.0878530
2442.0, 0.0879480
2443.0, 0.0880310
2444.0, 0.0880990
2445.0, 0.0881530
2446.0, 0.0881990
2447.0, 0.0882420
2448.0, 0.0882870
2449.0, 0.0883400
2450.0, 0.0884030
2451.0, 0.0884730
2452.0, 0.0885450
2453.0, 0.0886170
2454.0, 0.0886970
2455.0, 0.0887990
2456.0, 0.0889320
2457.0, 0.0890820
2458.0, 0.0892320
2459.0, 0.0893660
2460.0, 0.0894720
2461.0, 0.0895370
2462.0, 0.0895550
2463.0, 0.0895370
2464.0, 0.0894970
2465.0, 0.0894460
2466.0, 0.0893740
2467.0, 0.0892650
2468.0, 0.0891090
2469.0, 0.0889070
2470.0, 0.0886640
2471.0, 0.0883870
2472.0, 0.0880880
2473.0, 0.0877790
2474.0, 0.0874710
2475.0, 0.0871670
2476.0, 0.0868670
2477.0, 0.0865700
2478.0, 0.0862770
2479.0, 0.0859850
2480.0, 0.0857000
2481.0, 0.0854460
2482.0, 0.0852520
2483.0, 0.0851420
2484.0, 0.0851060
2485.0, 0.0851260
2486.0, 0.0851800
2487.0, 0.0852270
2488.0, 0.0852230
2489.0, 0.0851300
2490.0, 0.0849460
2491.0, 0.0846770
2492.0, 0.0843320
2493.0, 0.0839400
2494.0, 0.0835350
2495.0, 0.0831510
2496.0, 0.0828340
2497.0, 0.0826300
2498.0, 0.0825720
2499.0, 0.0826200
2500.0, 0.0827230
