Database of Origin, USGS Spectral Database
Sample Description, See USGS database for additional info
Date Added,2016-08-10 02:48:43.229715

Data ID,USGS_gla03          
Sample ID, glaucophane_hs426.8178
Mineral Name, glaucophane
Material Class,Inosilicate

Wavelength
221.1, 0.0378760
229.1, 0.0353810
236.1, 0.0333960
242.1, 0.0330800
248.1, 0.0321700
253.6, 0.0315680
258.6, 0.0316940
263.6, 0.0318660
268.6, 0.0316390
273.1, 0.0325570
277.1, 0.0337320
281.1, 0.0343520
285.1, 0.0353020
289.1, 0.0368540
293.1, 0.0388070
297.1, 0.0403030
301.1, 0.0434680
305.1, 0.0451500
309.1, 0.0476120
313.1, 0.0496550
317.1, 0.0520830
321.1, 0.0545510
325.1, 0.0555700
329.1, 0.0576890
333.1, 0.0579180
337.1, 0.0625990
341.1, 0.0605710
345.1, 0.0630660
349.1, 0.0632110
353.1, 0.0670300
357.1, 0.0666390
360.6, 0.0679900
363.6, 0.0703580
366.6, 0.0710090
369.6, 0.0699390
372.6, 0.0731000
375.6, 0.0732810
378.6, 0.0740640
381.1, 0.0765020
383.1, 0.0756480
385.1, 0.0776950
387.1, 0.0797790
389.1, 0.0807230
391.1, 0.0795680
393.1, 0.0836380
395.1, 0.0814830
397.1, 0.0821880
399.1, 0.0842120
401.1, 0.0840440
403.1, 0.0851750
405.1, 0.0870520
407.1, 0.0857630
409.1, 0.0896670
411.1, 0.0914690
412.8, 0.0920470
415.8, 0.0941520
418.8, 0.0943860
421.8, 0.0973880
424.8, 0.0979760
427.8, 0.0993440
430.8, 0.101176
433.8, 0.101271
436.8, 0.103267
439.8, 0.101969
442.8, 0.104601
445.8, 0.103437
448.8, 0.105610
451.3, 0.106896
453.3, 0.107279
455.3, 0.109795
457.3, 0.107997
459.3, 0.108245
461.3, 0.106624
463.3, 0.110192
465.3, 0.106829
467.3, 0.110370
469.3, 0.108365
471.3, 0.111289
473.3, 0.110174
475.3, 0.111520
477.3, 0.106809
479.3, 0.109727
481.3, 0.110240
483.3, 0.110141
485.3, 0.109440
487.3, 0.107220
489.3, 0.109998
491.3, 0.108675
493.3, 0.107361
495.3, 0.106296
497.3, 0.107474
499.3, 0.106630
501.3, 0.108209
503.3, 0.107447
505.3, 0.104829
507.3, 0.107462
509.3, 0.104541
511.3, 0.105739
513.3, 0.105930
515.3, 0.104826
517.3, 0.105175
519.3, 0.104460
521.3, 0.103753
523.3, 0.102216
525.3, 0.105012
527.3, 0.104130
529.3, 0.105065
531.3, 0.102958
533.3, 0.102155
535.3, 0.102679
537.3, 0.100790
539.3, 0.0995280
541.3, 0.103266
543.3, 0.101816
545.3, 0.101862
547.3, 0.103277
549.3, 0.0997850
551.3, 0.100797
553.3, 0.103736
555.3, 0.101394
557.3, 0.101614
559.3, 0.100310
561.3, 0.100819
563.3, 0.0999210
565.3, 0.101562
567.3, 0.101012
569.3, 0.101588
571.3, 0.100798
573.3, 0.102515
575.3, 0.100579
577.3, 0.100398
579.3, 0.100426
581.3, 0.100140
583.3, 0.100340
585.3, 0.100174
587.3, 0.0994480
589.3, 0.0962710
591.3, 0.0982570
593.3, 0.100046
595.3, 0.0991600
597.3, 0.100271
599.3, 0.0990420
601.1, 0.0977200
602.7, 0.0995320
604.3, 0.101041
605.9, 0.0977710
607.5, 0.0986950
609.1, 0.0977790
610.7, 0.0986600
612.3, 0.0982350
613.9, 0.0980810
615.5, 0.0988080
617.1, 0.0974430
618.7, 0.0979680
620.3, 0.0978970
621.9, 0.0969150
623.5, 0.0988630
625.1, 0.0960920
626.7, 0.0965550
628.3, 0.0990850
629.9, 0.0987800
631.7, 0.0963830
633.7, 0.0988420
635.7, 0.0977620
637.7, 0.0979020
639.7, 0.0985650
641.7, 0.0987740
643.7, 0.0975500
645.7, 0.0986290
647.7, 0.0974070
649.7, 0.0977700
651.7, 0.0988740
653.7, 0.0986980
655.7, 0.0985930
657.7, 0.0970560
659.7, 0.0981720
661.7, 0.0988240
663.7, 0.0965410
665.7, 0.0998120
667.7, 0.100641
670.2, 0.0988830
673.2, 0.0997610
676.2, 0.101003
679.2, 0.100657
682.2, 0.101284
685.2, 0.100054
688.2, 0.102179
691.2, 0.102928
694.2, 0.102750
697.2, 0.103577
700.2, 0.101815
702.0, 0.104693
704.0, 0.104530
706.0, 0.105362
708.0, 0.106774
710.0, 0.107608
712.0, 0.107416
714.0, 0.106180
716.0, 0.108867
718.0, 0.108639
720.0, 0.107179
722.0, 0.109755
724.0, 0.110184
726.0, 0.110242
728.0, 0.111240
730.0, 0.109750
732.0, 0.112397
734.0, 0.113959
736.0, 0.116027
738.0, 0.114541
740.0, 0.115532
742.0, 0.114273
744.0, 0.116747
746.0, 0.118220
748.0, 0.116446
750.5, 0.116885
753.5, 0.119878
756.5, 0.119850
759.5, 0.120055
762.5, 0.119133
765.5, 0.122285
768.5, 0.123113
771.5, 0.124034
774.5, 0.125962
777.5, 0.123692
781.0, 0.123193
785.0, 0.122700
789.0, 0.123450
793.0, 0.125364
797.0, 0.126144
801.5, 0.125482
806.5, 0.126801
811.5, 0.125996
816.5, 0.125672
822.0, 0.127251
828.0, 0.127961
835.0, 0.128804
851.0, 0.129896
859.0, 0.127641
871.0, 0.130595
883.0, 0.131293
894.0, 0.135698
904.0, 0.136655
914.0, 0.139884
924.0, 0.142160
933.0, 0.145964
941.0, 0.145227
949.0, 0.145003
957.0, 0.145229
964.0, 0.149880
970.0, 0.150879
976.0, 0.151175
982.0, 0.152370
988.0, 0.149702
994.0, 0.154045
1000.0, 0.155233
1006.0, 0.154535
1012.0, 0.156701
1018.0, 0.159043
1023.5, 0.162671
1028.5, 0.162957
1033.5, 0.164386
1038.5, 0.166660
1043.5, 0.167881
1048.5, 0.167712
1053.5, 0.170386
1058.5, 0.172735
1063.5, 0.174613
1068.5, 0.179251
1073.5, 0.177683
1078.5, 0.182525
1083.5, 0.184791
1088.5, 0.187832
1093.5, 0.191208
1098.5, 0.192428
1103.5, 0.197463
1108.5, 0.198377
1113.5, 0.204281
1118.5, 0.206922
1123.5, 0.211001
1128.5, 0.214331
1133.5, 0.219868
1138.5, 0.223611
1143.5, 0.225195
1148.5, 0.232224
1153.5, 0.236461
1158.5, 0.239709
1163.5, 0.242551
1168.5, 0.246820
1173.5, 0.252049
1178.5, 0.255527
1183.5, 0.257948
1188.5, 0.268067
1193.5, 0.268812
1198.5, 0.273751
1203.5, 0.278818
1208.5, 0.281792
1213.5, 0.288036
1218.5, 0.292659
1223.5, 0.295231
1228.5, 0.299990
1233.5, 0.306002
1238.5, 0.309137
1243.5, 0.313044
1248.5, 0.317257
1253.5, 0.321915
1258.5, 0.326879
1263.5, 0.328187
1268.5, 0.330677
1273.5, 0.337729
1278.5, 0.341687
1283.5, 0.342814
1288.5, 0.345813
1293.5, 0.348993
1298.5, 0.351686
1303.5, 0.357161
1308.5, 0.360611
1313.5, 0.362761
1318.5, 0.365879
1323.5, 0.363828
1328.5, 0.372511
1333.5, 0.376273
1338.5, 0.381452
1343.5, 0.382714
1348.5, 0.384327
1353.5, 0.388643
1358.5, 0.389207
1363.5, 0.393402
1368.5, 0.392809
1373.5, 0.397660
1378.5, 0.397949
1383.5, 0.401105
1388.5, 0.398811
1393.5, 0.366676
1398.5, 0.328698
1403.5, 0.299618
1408.5, 0.309197
1413.5, 0.357076
1418.5, 0.385835
1423.5, 0.404971
1428.5, 0.408991
1433.5, 0.411516
1438.5, 0.408842
1443.5, 0.412602
1448.5, 0.412829
1453.5, 0.413010
1458.5, 0.413288
1463.5, 0.416348
1468.5, 0.419542
1473.5, 0.423406
1478.5, 0.423243
1483.5, 0.433065
1488.5, 0.434196
1493.5, 0.434060
1498.5, 0.436972
1503.5, 0.439695
1508.5, 0.439268
1513.5, 0.445961
1518.5, 0.442968
1523.5, 0.445659
1528.5, 0.450256
1534.0, 0.454289
1540.0, 0.457895
1546.0, 0.460109
1552.0, 0.462862
1558.0, 0.465684
1564.0, 0.470178
1570.5, 0.469900
1577.5, 0.477126
1584.5, 0.477312
1591.5, 0.480688
1598.5, 0.481229
1605.5, 0.484245
1612.5, 0.483668
1619.5, 0.487730
1626.5, 0.490012
1633.5, 0.491379
1640.5, 0.495512
1647.5, 0.492569
1654.5, 0.494315
1661.5, 0.495690
1668.5, 0.499455
1676.0, 0.497005
1684.0, 0.500178
1692.0, 0.505932
1700.0, 0.498021
1708.0, 0.508698
1716.0, 0.507429
1724.0, 0.509709
1732.0, 0.513440
1740.0, 0.514599
1748.0, 0.514925
1756.0, 0.516064
1764.0, 0.517370
1772.0, 0.518701
1780.0, 0.519619
1788.0, 0.519389
1796.0, 0.525148
1805.0, 0.524484
1815.0, 0.524633
1825.0, 0.523322
1835.0, 0.525855
1845.0, 0.521861
1855.0, 0.523292
1865.0, 0.517898
1875.0, 0.518331
1885.0, 0.507546
1895.0, 0.502155
1905.0, 0.489758
1915.0, 0.478685
1925.0, 0.470666
1935.0, 0.461360
1945.0, 0.460176
1955.0, 0.464603
1965.0, 0.464534
1975.0, 0.473779
1985.0, 0.473841
1995.0, 0.473665
2005.0, 0.472593
2015.0, 0.476264
2025.0, 0.481141
2035.0, 0.487034
2045.0, 0.488536
2055.0, 0.487554
2065.0, 0.490036
2075.0, 0.495160
2085.0, 0.493328
2095.0, 0.491834
2105.0, 0.484497
2115.0, 0.483963
2125.0, 0.479337
2135.0, 0.475382
2145.0, 0.471182
2155.0, 0.460449
2165.0, 0.446738
2175.0, 0.440037
2185.0, 0.437483
2195.0, 0.430368
2205.0, 0.422969
2215.0, 0.409784
2225.0, 0.396990
2235.0, 0.377352
2245.0, 0.355914
2255.0, 0.334377
2265.0, 0.323163
2275.0, 0.302827
2285.0, 0.289565
2295.0, 0.238174
2305.0, 0.207440
2315.0, 0.193699
2325.0, 0.200507
2335.0, 0.229963
2345.0, 0.261387
2355.0, 0.283305
2365.0, 0.288072
2375.0, 0.276723
2386.0, 0.268102
2400.0, 0.279743
2418.0, 0.302983
2440.0, 0.304799
2466.0, 0.287750
2496.0, 0.274760
2528.0, 0.274090
2560.0, 0.264593
2592.0, 0.253796
2624.0, 0.247007
2656.0, 0.228958
2688.0, 0.182356
2720.0, 0.0896590
2752.0, 0.0514780
2784.0, 0.0778940
2816.0, 0.0837730
2848.0, 0.0924960
2880.0, 0.0951880
2912.0, 0.0927140
2944.0, 0.0839800
2976.0, 0.0828570
