Database of Origin, USGS Spectral Database
Sample Description, See USGS database for additional info
Date Added,2016-08-10 05:07:20.277249

Data ID,USGS_mei02          
Sample ID, meionite_ws701.13581
Mineral Name, meionite
Material Class,Tectosilicate

Wavelength
221.1, 0.112881
229.1, 0.150860
236.1, 0.205020
242.1, 0.252220
248.1, 0.283177
253.6, 0.301134
258.6, 0.313842
263.6, 0.324304
268.6, 0.328633
273.1, 0.341174
277.1, 0.349334
281.1, 0.361094
285.1, 0.371176
289.1, 0.384393
293.1, 0.396857
297.1, 0.408961
301.1, 0.421550
305.1, 0.436961
309.1, 0.446915
313.1, 0.457070
317.1, 0.465942
321.1, 0.479346
325.1, 0.486904
329.1, 0.497606
333.1, 0.502627
337.1, 0.514675
341.1, 0.518905
345.1, 0.531339
349.1, 0.537323
353.1, 0.545497
357.1, 0.553160
360.6, 0.559043
363.6, 0.563085
366.6, 0.567999
369.6, 0.569986
372.6, 0.574702
375.6, 0.573597
378.6, 0.575904
381.1, 0.578519
383.1, 0.578089
385.1, 0.577852
387.1, 0.577974
389.1, 0.580777
391.1, 0.579764
393.1, 0.584418
395.1, 0.582587
397.1, 0.581142
399.1, 0.585122
401.1, 0.589102
403.1, 0.588324
405.1, 0.591471
407.1, 0.590090
409.1, 0.591675
411.1, 0.590618
412.8, 0.596045
415.8, 0.597807
418.8, 0.604297
421.8, 0.608180
424.8, 0.608311
427.8, 0.617804
430.8, 0.621374
433.8, 0.626306
436.8, 0.630902
439.8, 0.639269
442.8, 0.642400
445.8, 0.643047
448.8, 0.647432
451.3, 0.655021
453.3, 0.655098
455.3, 0.655427
457.3, 0.662224
459.3, 0.661294
461.3, 0.664118
463.3, 0.664041
465.3, 0.666528
467.3, 0.668654
469.3, 0.666632
471.3, 0.666799
473.3, 0.670561
475.3, 0.671658
477.3, 0.672786
479.3, 0.674735
481.3, 0.672338
483.3, 0.676895
485.3, 0.672276
487.3, 0.674495
489.3, 0.679926
491.3, 0.682160
493.3, 0.680509
495.3, 0.679055
497.3, 0.687785
499.3, 0.682651
501.3, 0.679390
503.3, 0.685134
505.3, 0.687732
507.3, 0.685428
509.3, 0.687032
511.3, 0.691220
513.3, 0.693430
515.3, 0.695260
517.3, 0.688932
519.3, 0.695257
521.3, 0.693124
523.3, 0.698066
525.3, 0.695987
527.3, 0.699998
529.3, 0.694388
531.3, 0.697233
533.3, 0.699313
535.3, 0.701259
537.3, 0.699601
539.3, 0.701487
541.3, 0.700355
543.3, 0.703318
545.3, 0.701022
547.3, 0.700869
549.3, 0.707576
551.3, 0.707000
553.3, 0.704496
555.3, 0.704008
557.3, 0.703564
559.3, 0.706618
561.3, 0.707394
563.3, 0.708635
565.3, 0.705634
567.3, 0.704498
569.3, 0.707734
571.3, 0.709793
573.3, 0.706971
575.3, 0.705783
577.3, 0.712621
579.3, 0.707527
581.3, 0.708281
583.3, 0.712025
585.3, 0.707783
587.3, 0.709343
589.3, 0.711411
591.3, 0.713064
593.3, 0.714557
595.3, 0.709704
597.3, 0.712612
599.3, 0.713930
601.1, 0.712330
602.7, 0.712291
604.3, 0.711827
605.9, 0.711368
607.5, 0.710341
609.1, 0.712111
610.7, 0.716413
612.3, 0.717148
613.9, 0.716958
615.5, 0.716292
617.1, 0.715487
618.7, 0.717849
620.3, 0.714653
621.9, 0.712475
623.5, 0.712688
625.1, 0.718277
626.7, 0.718444
628.3, 0.716692
629.9, 0.714137
631.7, 0.718057
633.7, 0.714000
635.7, 0.719384
637.7, 0.713349
639.7, 0.714740
641.7, 0.719202
643.7, 0.717211
645.7, 0.716207
647.7, 0.718097
649.7, 0.719872
651.7, 0.720047
653.7, 0.717702
655.7, 0.719409
657.7, 0.720370
659.7, 0.723246
661.7, 0.720621
663.7, 0.718444
665.7, 0.724710
667.7, 0.723541
670.2, 0.716635
673.2, 0.721268
676.2, 0.724147
679.2, 0.720207
682.2, 0.724193
685.2, 0.721970
688.2, 0.722973
691.2, 0.727193
694.2, 0.718562
697.2, 0.725823
700.2, 0.724426
702.0, 0.722460
704.0, 0.724046
706.0, 0.726895
708.0, 0.723447
710.0, 0.726969
712.0, 0.726502
714.0, 0.726394
716.0, 0.722833
718.0, 0.726797
720.0, 0.726928
722.0, 0.726817
724.0, 0.727570
726.0, 0.729823
728.0, 0.731478
730.0, 0.727716
732.0, 0.732619
734.0, 0.728438
736.0, 0.730441
738.0, 0.728871
740.0, 0.730340
742.0, 0.731954
744.0, 0.730467
746.0, 0.731788
748.0, 0.728657
750.5, 0.730853
753.5, 0.730852
756.5, 0.731443
759.5, 0.731521
762.5, 0.734540
765.5, 0.734161
768.5, 0.735371
771.5, 0.732816
774.5, 0.734515
777.5, 0.734590
781.0, 0.731358
785.0, 0.732641
789.0, 0.734054
793.0, 0.740511
797.0, 0.735230
801.5, 0.733399
806.5, 0.738641
811.5, 0.738393
816.5, 0.738499
822.0, 0.734573
828.0, 0.734128
835.0, 0.734182
851.0, 0.734254
859.0, 0.736648
871.0, 0.736035
883.0, 0.729991
894.0, 0.732729
904.0, 0.731056
914.0, 0.731578
924.0, 0.736310
933.0, 0.733632
941.0, 0.731990
949.0, 0.731792
957.0, 0.727437
964.0, 0.736744
970.0, 0.731103
976.0, 0.734141
982.0, 0.734964
988.0, 0.733030
994.0, 0.733224
1000.0, 0.733352
1006.0, 0.732688
1012.0, 0.735313
1018.0, 0.732188
1023.5, 0.739097
1028.5, 0.737058
1033.5, 0.735687
1038.5, 0.735960
1043.5, 0.735559
1048.5, 0.742195
1053.5, 0.740653
1058.5, 0.739593
1063.5, 0.742386
1068.5, 0.740283
1073.5, 0.736851
1078.5, 0.742118
1083.5, 0.739740
1088.5, 0.741245
1093.5, 0.744311
1098.5, 0.741464
1103.5, 0.744085
1108.5, 0.743111
1113.5, 0.745386
1118.5, 0.743470
1123.5, 0.745855
1128.5, 0.742932
1133.5, 0.749485
1138.5, 0.746843
1143.5, 0.750802
1148.5, 0.747288
1153.5, 0.749405
1158.5, 0.749401
1163.5, 0.750480
1168.5, 0.747585
1173.5, 0.749364
1178.5, 0.754156
1183.5, 0.753120
1188.5, 0.753405
1193.5, 0.754933
1198.5, 0.755984
1203.5, 0.755183
1208.5, 0.756699
1213.5, 0.757897
1218.5, 0.758224
1223.5, 0.759686
1228.5, 0.760573
1233.5, 0.760261
1238.5, 0.761841
1243.5, 0.764642
1248.5, 0.764746
1253.5, 0.762538
1258.5, 0.763427
1263.5, 0.764730
1268.5, 0.763206
1273.5, 0.772214
1278.5, 0.766218
1283.5, 0.766938
1288.5, 0.764325
1293.5, 0.767300
1298.5, 0.767560
1303.5, 0.770189
1308.5, 0.768735
1313.5, 0.768480
1318.5, 0.766186
1323.5, 0.772215
1328.5, 0.771329
1333.5, 0.769459
1338.5, 0.769508
1343.5, 0.771087
1348.5, 0.769780
1353.5, 0.773650
1358.5, 0.767352
1363.5, 0.771493
1368.5, 0.772150
1373.5, 0.776180
1378.5, 0.775105
1383.5, 0.770643
1388.5, 0.773521
1393.5, 0.764646
1398.5, 0.765769
1403.5, 0.758622
1408.5, 0.757509
1413.5, 0.754844
1418.5, 0.759539
1423.5, 0.761408
1428.5, 0.762805
1433.5, 0.768320
1438.5, 0.767877
1443.5, 0.766707
1448.5, 0.769073
1453.5, 0.770528
1458.5, 0.771549
1463.5, 0.764767
1468.5, 0.755446
1473.5, 0.750632
1478.5, 0.760883
1483.5, 0.769046
1488.5, 0.771435
1493.5, 0.774811
1498.5, 0.777241
1503.5, 0.778534
1508.5, 0.777613
1513.5, 0.778178
1518.5, 0.781165
1523.5, 0.779710
1528.5, 0.782018
1534.0, 0.779289
1540.0, 0.783914
1546.0, 0.788691
1552.0, 0.781193
1558.0, 0.785727
1564.0, 0.786532
1570.5, 0.786647
1577.5, 0.787688
1584.5, 0.785081
1591.5, 0.786188
1598.5, 0.784088
1605.5, 0.788381
1612.5, 0.788755
1619.5, 0.786260
1626.5, 0.782192
1633.5, 0.785849
1640.5, 0.788182
1647.5, 0.787071
1654.5, 0.786396
1661.5, 0.785861
1668.5, 0.786630
1676.0, 0.789361
1684.0, 0.783986
1692.0, 0.783789
1700.0, 0.787691
1708.0, 0.786428
1716.0, 0.785420
1724.0, 0.783242
1732.0, 0.784247
1740.0, 0.782066
1748.0, 0.789737
1756.0, 0.784920
1764.0, 0.780220
1772.0, 0.785172
1780.0, 0.785009
1788.0, 0.787082
1796.0, 0.785672
1805.0, 0.783157
1815.0, 0.779399
1825.0, 0.778147
1835.0, 0.782764
1845.0, 0.778742
1855.0, 0.779074
1865.0, 0.777251
1875.0, 0.774216
1885.0, 0.761697
1895.0, 0.765814
1905.0, 0.748744
1915.0, 0.726553
1925.0, 0.738873
1935.0, 0.744229
1945.0, 0.750659
1955.0, 0.745095
1965.0, 0.752614
1975.0, 0.756930
1985.0, 0.757055
1995.0, 0.760012
2005.0, 0.764975
2015.0, 0.760424
2025.0, 0.765507
2035.0, 0.765233
2045.0, 0.768707
2055.0, 0.772593
2065.0, 0.772743
2075.0, 0.771511
2085.0, 0.770488
2095.0, 0.771965
2105.0, 0.767232
2115.0, 0.761458
2125.0, 0.756355
2135.0, 0.759988
2145.0, 0.753669
2155.0, 0.756239
2165.0, 0.749874
2175.0, 0.747423
2185.0, 0.738829
2195.0, 0.738589
2205.0, 0.734069
2215.0, 0.734969
2225.0, 0.728546
2235.0, 0.718735
2245.0, 0.722253
2255.0, 0.722240
2265.0, 0.721882
2275.0, 0.727365
2285.0, 0.714071
2295.0, 0.716067
2305.0, 0.722344
2315.0, 0.704803
2325.0, 0.693012
2335.0, 0.683110
2345.0, 0.686076
2355.0, 0.677961
2365.0, 0.684724
2375.0, 0.695246
2386.0, 0.686983
2400.0, 0.682440
2418.0, 0.681066
2440.0, 0.686065
2466.0, 0.671203
2496.0, 0.669236
2528.0, 0.665675
2560.0, 0.657221
2592.0, 0.658395
2624.0, 0.655587
2656.0, 0.640587
2688.0, 0.578168
2720.0, 0.405625
2752.0, 0.230028
2784.0, 0.236324
2816.0, 0.252395
2848.0, 0.218991
2880.0, 0.219027
2912.0, 0.256121
2944.0, 0.263876
2976.0, 0.281852
