Database of Origin, USGS Spectral Database
Sample Description, See USGS database for additional info
Date Added,2016-08-03 21:03:38.422422

Data ID,USGS_ars02          
Sample ID, arsenopyrite_hs262.3135
Mineral Name, arsenopyrite
Material Class,Sulfide

Wavelength
1602.52, 0.110281
1603.02, 0.110012
1603.51, 0.110147
1604.01, 0.110214
1604.5, 0.110348
1605.0, 0.110549
1605.5, 0.110415
1606.0, 0.110147
1606.49, 0.110549
1606.99, 0.110549
1607.49, 0.110012
1607.99, 0.109677
1608.49, 0.109811
1608.99, 0.110012
1609.49, 0.110348
1609.99, 0.110214
1610.49, 0.109476
1610.99, 0.109610
1611.49, 0.110012
1611.99, 0.110080
1612.49, 0.110147
1612.99, 0.109811
1613.49, 0.109543
1614.0, 0.109811
1614.5, 0.109677
1615.0, 0.109476
1615.51, 0.109677
1616.01, 0.109610
1616.51, 0.109543
1617.02, 0.109811
1617.52, 0.110012
1618.03, 0.110080
1618.53, 0.110147
1619.04, 0.109945
1619.54, 0.109342
1620.05, 0.109007
1620.55, 0.109677
1621.06, 0.109744
1621.57, 0.109275
1622.08, 0.109208
1622.58, 0.109007
1623.09, 0.108739
1623.6, 0.109409
1624.11, 0.109878
1624.62, 0.109610
1625.13, 0.109610
1625.64, 0.109543
1626.15, 0.109409
1626.66, 0.109610
1627.17, 0.110080
1627.68, 0.109677
1628.19, 0.109543
1628.7, 0.109744
1629.21, 0.109543
1629.72, 0.109945
1630.24, 0.109811
1630.75, 0.109744
1631.26, 0.109811
1631.78, 0.110080
1632.29, 0.109744
1632.8, 0.109409
1633.32, 0.109543
1633.83, 0.109208
1634.35, 0.109208
1634.86, 0.109409
1635.38, 0.109476
1635.9, 0.109543
1636.41, 0.109275
1636.93, 0.109476
1637.45, 0.109342
1637.96, 0.109141
1638.48, 0.109275
1639.0, 0.109476
1639.52, 0.109275
1640.04, 0.108940
1640.56, 0.108605
1641.08, 0.109007
1641.59, 0.109409
1642.11, 0.108940
1642.63, 0.108873
1643.16, 0.109811
1643.68, 0.109610
1644.2, 0.109275
1644.72, 0.109141
1645.24, 0.108672
1645.76, 0.108404
1646.29, 0.108337
1646.81, 0.108739
1647.33, 0.109074
1647.86, 0.109007
1648.38, 0.109141
1648.9, 0.109409
1649.43, 0.109610
1649.95, 0.109342
1650.48, 0.108873
1651.0, 0.108739
1651.53, 0.109007
1652.06, 0.108806
1652.58, 0.108940
1653.11, 0.109476
1653.64, 0.109208
1654.17, 0.108873
1654.69, 0.109074
1655.22, 0.109141
1655.75, 0.108940
1656.28, 0.109208
1656.81, 0.109275
1657.34, 0.109208
1657.87, 0.109141
1658.4, 0.109342
1658.93, 0.109811
1659.46, 0.109409
1659.99, 0.108940
1660.52, 0.108806
1661.05, 0.108873
1661.59, 0.108605
1662.12, 0.108739
1662.65, 0.108873
1663.19, 0.109074
1663.72, 0.109141
1664.26, 0.108806
1664.79, 0.108605
1665.32, 0.109074
1665.86, 0.109409
1666.39, 0.109141
1666.93, 0.108873
1667.47, 0.108538
1668.0, 0.108068
1668.54, 0.108605
1669.08, 0.108605
1669.61, 0.108269
1670.15, 0.108404
1670.69, 0.108739
1671.23, 0.108940
1671.77, 0.108873
1672.31, 0.108672
1672.85, 0.108806
1673.39, 0.108873
1673.93, 0.108672
1674.47, 0.108471
1675.01, 0.108806
1675.55, 0.109409
1676.09, 0.109208
1676.64, 0.108605
1677.18, 0.108605
1677.72, 0.108672
1678.26, 0.108672
1678.81, 0.108873
1679.35, 0.109543
1679.89, 0.109342
1680.44, 0.108940
1680.98, 0.109007
1681.53, 0.109007
1682.07, 0.108739
1682.62, 0.108672
1683.17, 0.108538
1683.71, 0.108739
1684.26, 0.108873
1684.81, 0.108806
1685.36, 0.108672
1685.9, 0.108605
1686.45, 0.109007
1687.0, 0.109342
1687.55, 0.108739
1688.1, 0.108538
1688.65, 0.109007
1689.2, 0.108873
1689.75, 0.108739
1690.3, 0.108672
1690.85, 0.109007
1691.41, 0.109074
1691.96, 0.108873
1692.51, 0.108739
1693.06, 0.108337
1693.61, 0.108605
1694.17, 0.108873
1694.72, 0.108940
1695.28, 0.109141
1695.83, 0.109007
1696.39, 0.108605
1696.94, 0.108538
1697.5, 0.108202
1698.05, 0.108404
1698.61, 0.109141
1699.17, 0.108739
1699.72, 0.108337
1700.28, 0.108605
1700.84, 0.108739
1701.4, 0.109007
1701.95, 0.108739
1702.51, 0.108404
1703.07, 0.108806
1703.63, 0.108873
1704.19, 0.108806
1704.75, 0.108672
1705.31, 0.108337
1705.88, 0.108471
1706.44, 0.108269
1707.0, 0.108135
1707.56, 0.108269
1708.12, 0.108672
1708.69, 0.108672
1709.25, 0.108471
1709.81, 0.108471
1710.38, 0.108672
1710.94, 0.108269
1711.51, 0.108001
1712.07, 0.108337
1712.64, 0.108404
1713.2, 0.108269
1713.77, 0.108538
1714.34, 0.108404
1714.9, 0.108337
1715.47, 0.108404
1716.04, 0.108605
1716.61, 0.108202
1717.18, 0.107733
1717.74, 0.108068
1718.31, 0.108538
1718.88, 0.108337
1719.45, 0.108068
1720.02, 0.108202
1720.59, 0.108404
1721.17, 0.108202
1721.74, 0.108337
1722.31, 0.108202
1722.88, 0.108068
1723.45, 0.108471
1724.03, 0.108739
1724.6, 0.108538
1725.18, 0.108135
1725.75, 0.107800
1726.33, 0.107800
1726.9, 0.108135
1727.48, 0.108269
1728.05, 0.108337
1728.63, 0.108269
1729.2, 0.108337
1729.78, 0.108471
1730.36, 0.108337
1730.94, 0.108538
1731.51, 0.108538
1732.09, 0.108806
1732.67, 0.108605
1733.25, 0.108337
1733.83, 0.108269
1734.41, 0.108135
1734.99, 0.107934
1735.57, 0.107666
1736.15, 0.107800
1736.73, 0.107934
1737.32, 0.108001
1737.9, 0.108068
1738.48, 0.108404
1739.07, 0.108404
1739.65, 0.108269
1740.23, 0.108471
1740.82, 0.108404
1741.4, 0.108068
1741.99, 0.107934
1742.57, 0.108135
1743.16, 0.108538
1743.74, 0.108806
1744.33, 0.108538
1744.92, 0.108269
1745.51, 0.108337
1746.09, 0.108672
1746.68, 0.108672
1747.27, 0.108471
1747.86, 0.108068
1748.45, 0.107934
1749.04, 0.108202
1749.63, 0.108404
1750.22, 0.108471
1750.81, 0.108471
1751.4, 0.108404
1751.99, 0.108202
1752.59, 0.108269
1753.18, 0.108337
1753.77, 0.108471
1754.37, 0.108337
1754.96, 0.108202
1755.56, 0.108001
1756.15, 0.108001
1756.74, 0.108001
1757.34, 0.108068
1757.94, 0.108337
1758.53, 0.108269
1759.13, 0.108068
1759.73, 0.108001
1760.32, 0.108068
1760.92, 0.108135
1761.52, 0.108337
1762.12, 0.108337
1762.72, 0.108135
1763.32, 0.108337
1763.92, 0.108337
1764.52, 0.108269
1765.12, 0.108068
1765.72, 0.108001
1766.32, 0.108068
1766.92, 0.107934
1767.53, 0.107934
1768.13, 0.107934
1768.73, 0.107867
1769.34, 0.108068
1769.94, 0.108404
1770.55, 0.108471
1771.15, 0.108337
1771.76, 0.108269
1772.36, 0.108538
1772.97, 0.108068
1773.57, 0.107666
1774.18, 0.107733
1774.79, 0.108001
1775.4, 0.107934
1776.0, 0.107867
1776.61, 0.107867
1777.22, 0.107867
1777.83, 0.107800
1778.44, 0.107934
1779.05, 0.108202
1779.66, 0.108337
1780.27, 0.108135
1780.88, 0.107934
1781.5, 0.107666
1782.11, 0.107800
1782.72, 0.107867
1783.33, 0.107934
1783.95, 0.108068
1784.56, 0.108001
1785.18, 0.107934
1785.79, 0.108202
1786.41, 0.108135
1787.02, 0.107867
1787.64, 0.107800
1788.26, 0.107800
1788.87, 0.107666
1789.49, 0.107867
1790.11, 0.107867
1790.73, 0.107733
1791.35, 0.107599
1791.96, 0.107532
1792.58, 0.107599
1793.21, 0.107867
1793.83, 0.107666
1794.45, 0.107532
1795.07, 0.107599
1795.69, 0.107733
1796.31, 0.107733
1796.93, 0.107800
1797.56, 0.107867
1798.18, 0.108001
1798.8, 0.108068
1799.43, 0.108068
1800.05, 0.107934
1800.68, 0.108068
1801.3, 0.108135
1801.93, 0.107867
1802.56, 0.107532
1803.18, 0.107800
1803.81, 0.107800
1804.44, 0.107800
1805.07, 0.108001
1805.7, 0.108135
1806.33, 0.107666
1806.95, 0.107532
1807.58, 0.107733
1808.22, 0.107733
1808.85, 0.107599
1809.48, 0.107599
1810.11, 0.107532
1810.74, 0.107867
1811.38, 0.108202
1812.01, 0.108001
1812.64, 0.107733
1813.28, 0.107800
1813.91, 0.107733
1814.55, 0.107599
1815.18, 0.107465
1815.82, 0.107666
1816.45, 0.107800
1817.09, 0.108068
1817.73, 0.107867
1818.36, 0.107599
1819.0, 0.107532
1819.64, 0.107599
1820.28, 0.107733
1820.92, 0.107934
1821.56, 0.107800
1822.2, 0.107666
1822.84, 0.107800
1823.48, 0.107800
1824.12, 0.107733
1824.76, 0.108001
1825.41, 0.107934
1826.05, 0.107599
1826.69, 0.107666
1827.34, 0.108001
1827.98, 0.108001
1828.63, 0.107599
1829.27, 0.107532
1829.92, 0.107599
1830.56, 0.107733
1831.21, 0.107867
1831.86, 0.107733
1832.5, 0.107733
1833.15, 0.107465
1833.8, 0.107465
1834.45, 0.107599
1835.1, 0.107599
1835.75, 0.107465
1836.4, 0.107465
1837.05, 0.107733
1837.7, 0.107867
1838.35, 0.107733
1839.01, 0.107398
1839.66, 0.107465
1840.31, 0.107666
1840.96, 0.107733
1841.62, 0.107867
1842.27, 0.107934
1842.93, 0.107733
1843.58, 0.107666
1844.24, 0.107666
1844.9, 0.107532
1845.55, 0.107666
1846.21, 0.107733
1846.87, 0.107666
1847.53, 0.107398
1848.18, 0.107197
1848.84, 0.107331
1849.5, 0.107465
1850.16, 0.107599
1850.82, 0.107867
1851.48, 0.107733
1852.14, 0.107331
1852.81, 0.107197
1853.47, 0.107264
1854.13, 0.107331
1854.8, 0.107532
1855.46, 0.107465
1856.12, 0.107532
1856.79, 0.107532
1857.45, 0.107599
1858.12, 0.107666
1858.79, 0.107465
1859.45, 0.107331
1860.12, 0.107465
1860.79, 0.107398
1861.46, 0.107197
1862.12, 0.107264
1862.79, 0.107532
1863.46, 0.107465
1864.13, 0.107063
1864.8, 0.107197
1865.48, 0.107398
1866.15, 0.107398
1866.82, 0.107264
1867.49, 0.107197
1868.16, 0.107465
1868.84, 0.107465
1869.51, 0.107264
1870.19, 0.107331
1870.86, 0.107532
1871.54, 0.107599
1872.21, 0.107465
1872.89, 0.107264
1873.56, 0.107264
1874.24, 0.107264
1874.92, 0.107733
1875.6, 0.107867
1876.28, 0.107666
1876.96, 0.107398
1877.64, 0.107465
1878.32, 0.107532
1879.0, 0.107130
1879.68, 0.106728
1880.36, 0.106929
1881.04, 0.107063
1881.73, 0.107063
1882.41, 0.106728
1883.09, 0.106862
1883.78, 0.107130
1884.46, 0.107197
1885.15, 0.107063
1885.83, 0.106862
1886.52, 0.106862
1887.21, 0.106862
1887.89, 0.106996
1888.58, 0.107264
1889.27, 0.106929
1889.96, 0.106929
1890.65, 0.106862
1891.34, 0.106862
1892.03, 0.106526
1892.72, 0.106593
1893.41, 0.106862
1894.1, 0.106862
1894.79, 0.106728
1895.49, 0.106661
1896.18, 0.106728
1896.87, 0.106795
1897.57, 0.106795
1898.26, 0.106795
1898.96, 0.106661
1899.65, 0.106526
1900.35, 0.106526
1901.05, 0.106526
1901.74, 0.106459
1902.44, 0.106459
1903.14, 0.106459
1903.84, 0.106325
1904.54, 0.106392
1905.24, 0.106593
1905.94, 0.106459
1906.64, 0.106325
1907.34, 0.106325
1908.04, 0.106191
1908.75, 0.105990
1909.45, 0.106258
1910.15, 0.106258
1910.86, 0.106124
1911.56, 0.106325
1912.27, 0.106392
1912.97, 0.105990
1913.68, 0.105856
1914.39, 0.106057
1915.09, 0.106191
1915.8, 0.106191
1916.51, 0.106325
1917.22, 0.106392
1917.93, 0.106325
1918.64, 0.106325
1919.35, 0.106325
1920.06, 0.106325
1920.77, 0.106057
1921.48, 0.105990
1922.19, 0.106124
1922.91, 0.106191
1923.62, 0.106124
1924.33, 0.105990
1925.05, 0.106057
1925.76, 0.106191
1926.48, 0.106392
1927.19, 0.106392
1927.91, 0.106258
1928.63, 0.106124
1929.35, 0.106191
1930.07, 0.106325
1930.78, 0.106258
1931.5, 0.106258
1932.22, 0.105923
1932.94, 0.105789
1933.66, 0.105990
1934.39, 0.105923
1935.11, 0.105923
1935.83, 0.105722
1936.55, 0.105856
1937.28, 0.106057
1938.0, 0.106124
1938.73, 0.105990
1939.45, 0.105923
1940.18, 0.105923
1940.9, 0.106057
1941.63, 0.106191
1942.36, 0.106191
1943.09, 0.105990
1943.81, 0.105856
1944.54, 0.105722
1945.27, 0.105789
1946.0, 0.105856
1946.73, 0.105856
1947.47, 0.105789
1948.2, 0.106057
1948.93, 0.106191
1949.66, 0.106191
1950.4, 0.106057
1951.13, 0.105990
1951.86, 0.105990
1952.6, 0.106325
1953.34, 0.106325
1954.07, 0.106057
1954.81, 0.105789
1955.55, 0.105923
1956.29, 0.105923
1957.02, 0.105923
1957.76, 0.105655
1958.5, 0.105655
1959.24, 0.105722
1959.98, 0.105789
1960.72, 0.105923
1961.47, 0.106057
1962.21, 0.105856
1962.95, 0.105856
1963.7, 0.105990
1964.44, 0.106124
1965.18, 0.106124
1965.93, 0.105990
1966.67, 0.105722
1967.42, 0.105789
1968.17, 0.105789
1968.92, 0.105655
1969.66, 0.105588
1970.41, 0.106057
1971.16, 0.106191
1971.91, 0.105990
1972.66, 0.105856
1973.41, 0.105923
1974.16, 0.106057
1974.92, 0.106191
1975.67, 0.105923
1976.42, 0.106057
1977.18, 0.106392
1977.93, 0.106191
1978.69, 0.105923
1979.44, 0.106057
1980.2, 0.106124
1980.95, 0.106057
1981.71, 0.105923
1982.47, 0.106124
1983.23, 0.106124
1983.99, 0.105856
1984.74, 0.105722
1985.51, 0.105655
1986.27, 0.105722
1987.03, 0.105990
1987.79, 0.106057
1988.55, 0.105990
1989.32, 0.105856
1990.08, 0.105856
1990.84, 0.105789
1991.61, 0.105923
1992.37, 0.105990
1993.14, 0.105923
1993.9, 0.105923
1994.67, 0.105990
1995.44, 0.106258
1996.21, 0.106325
1996.98, 0.105990
1997.75, 0.105990
1998.52, 0.105923
1999.29, 0.106057
2000.06, 0.105923
2000.83, 0.105722
2001.6, 0.105923
2002.38, 0.106258
2003.15, 0.106325
2003.93, 0.106057
2004.7, 0.105923
2005.48, 0.105923
2006.25, 0.105990
2007.03, 0.105923
2007.81, 0.105856
2008.58, 0.105856
2009.36, 0.105789
2010.14, 0.105923
2010.92, 0.106191
2011.7, 0.106057
2012.48, 0.106057
2013.26, 0.106124
2014.05, 0.105789
2014.83, 0.105789
2015.61, 0.105923
2016.4, 0.106124
2017.18, 0.106057
2017.97, 0.106191
2018.75, 0.106124
2019.54, 0.106124
2020.32, 0.106124
2021.11, 0.105923
2021.9, 0.105923
2022.69, 0.105923
2023.48, 0.105923
2024.27, 0.106124
2025.06, 0.106191
2025.85, 0.105856
2026.64, 0.105789
2027.44, 0.105990
2028.23, 0.105789
2029.02, 0.105655
2029.82, 0.105588
2030.61, 0.105789
2031.41, 0.105990
2032.2, 0.105856
2033.0, 0.105722
2033.8, 0.105990
2034.6, 0.105923
2035.4, 0.105923
2036.2, 0.106057
2037.0, 0.105990
2037.8, 0.105990
2038.6, 0.106057
2039.4, 0.106191
2040.2, 0.106191
2041.01, 0.106124
2041.81, 0.106124
2042.61, 0.105990
2043.42, 0.105789
2044.22, 0.105722
2045.03, 0.105856
2045.84, 0.106057
2046.65, 0.106057
2047.46, 0.105789
2048.26, 0.105856
2049.07, 0.106124
2049.88, 0.106057
2050.69, 0.105856
2051.51, 0.105789
2052.32, 0.105722
2053.13, 0.105722
2053.94, 0.105789
2054.76, 0.105856
2055.57, 0.105856
2056.39, 0.105856
2057.2, 0.105789
2058.02, 0.105588
2058.84, 0.105521
2059.66, 0.105655
2060.48, 0.105655
2061.29, 0.105789
2062.11, 0.105923
2062.94, 0.106057
2063.76, 0.106057
2064.58, 0.106124
2065.4, 0.105856
2066.22, 0.105722
2067.05, 0.105655
2067.87, 0.105655
2068.7, 0.105588
2069.52, 0.105588
2070.35, 0.105588
2071.18, 0.105789
2072.0, 0.105655
2072.83, 0.105454
2073.66, 0.105454
2074.49, 0.105588
2075.32, 0.105722
2076.15, 0.105856
2076.98, 0.105655
2077.82, 0.105521
2078.65, 0.105521
2079.48, 0.105588
2080.32, 0.105521
2081.15, 0.105588
2081.99, 0.105655
2082.83, 0.105722
2083.66, 0.105655
2084.5, 0.105856
2085.34, 0.105990
2086.18, 0.105990
2087.02, 0.105655
2087.86, 0.105722
2088.7, 0.106057
2089.54, 0.105923
2090.39, 0.105521
2091.23, 0.105521
2092.07, 0.105454
2092.92, 0.105588
2093.76, 0.105588
2094.61, 0.105521
2095.45, 0.105454
2096.3, 0.105521
2097.15, 0.105856
2098.0, 0.105856
2098.85, 0.105722
2099.7, 0.105655
2100.55, 0.105521
2101.4, 0.105588
2102.25, 0.105588
2103.1, 0.105521
2103.96, 0.105722
2104.81, 0.105789
2105.67, 0.105722
2106.52, 0.105521
2107.38, 0.105387
2108.24, 0.105655
2109.09, 0.105655
2109.95, 0.105588
2110.81, 0.105789
2111.67, 0.105923
2112.53, 0.105789
2113.39, 0.105856
2114.25, 0.105990
2115.12, 0.105923
2115.98, 0.105789
2116.84, 0.105789
2117.71, 0.105789
2118.58, 0.105722
2119.44, 0.105655
2120.31, 0.105655
2121.18, 0.105722
2122.04, 0.105789
2122.91, 0.105655
2123.78, 0.105655
2124.65, 0.105521
2125.52, 0.105454
2126.4, 0.105588
2127.27, 0.105856
2128.14, 0.105923
2129.02, 0.105722
2129.89, 0.105521
2130.77, 0.105521
2131.64, 0.105722
2132.52, 0.105990
2133.4, 0.106057
2134.27, 0.105923
2135.15, 0.105856
2136.03, 0.105655
2136.91, 0.105655
2137.79, 0.105856
2138.68, 0.105856
2139.56, 0.106057
2140.44, 0.105990
2141.33, 0.105856
2142.21, 0.105789
2143.1, 0.106057
2143.99, 0.106057
2144.87, 0.105789
2145.76, 0.105722
2146.65, 0.105990
2147.54, 0.105990
2148.43, 0.105923
2149.32, 0.105722
2150.21, 0.105655
2151.1, 0.105588
2151.99, 0.105521
2152.89, 0.105655
2153.78, 0.105722
2154.68, 0.105655
2155.57, 0.105856
2156.47, 0.105923
2157.37, 0.105655
2158.27, 0.105588
2159.16, 0.105655
2160.06, 0.105521
2160.96, 0.105588
2161.86, 0.105789
2162.77, 0.105789
2163.67, 0.105655
2164.57, 0.105588
2165.48, 0.105588
2166.38, 0.105588
2167.29, 0.105722
2168.2, 0.105789
2169.1, 0.105923
2170.01, 0.105655
2170.92, 0.105454
2171.83, 0.105521
2172.74, 0.105454
2173.65, 0.105186
2174.56, 0.105186
2175.47, 0.105387
2176.39, 0.105320
2177.3, 0.105253
2178.22, 0.105387
2179.13, 0.105320
2180.05, 0.105119
2180.96, 0.105119
2181.88, 0.105253
2182.8, 0.105186
2183.72, 0.104985
2184.64, 0.104985
2185.56, 0.105119
2186.48, 0.105052
2187.41, 0.104917
2188.33, 0.104783
2189.25, 0.104850
2190.18, 0.104716
2191.1, 0.104716
2192.03, 0.104850
2192.96, 0.104917
2193.89, 0.104783
2194.82, 0.104649
2195.74, 0.104783
2196.68, 0.104649
2197.61, 0.104716
2198.54, 0.104985
2199.47, 0.104850
2200.4, 0.104649
2201.34, 0.104783
2202.28, 0.104850
2203.21, 0.104716
2204.15, 0.104582
2205.08, 0.104582
2206.02, 0.104582
2206.96, 0.104783
2207.9, 0.104850
2208.84, 0.104905
2209.78, 0.105344
2210.73, 0.105454
2211.67, 0.105289
2212.61, 0.105508
2213.56, 0.105399
2214.5, 0.105454
2215.45, 0.105618
2216.4, 0.105508
2217.35, 0.105344
2218.3, 0.105344
2219.24, 0.105344
2220.2, 0.105563
2221.15, 0.105673
2222.1, 0.105783
2223.05, 0.106057
2224.0, 0.105673
2224.96, 0.105344
2225.91, 0.105563
2226.87, 0.105508
2227.83, 0.105125
2228.79, 0.105508
2229.74, 0.105947
2230.7, 0.105728
2231.66, 0.105563
2232.63, 0.105783
2233.59, 0.105728
2234.55, 0.105563
2235.51, 0.105618
2236.48, 0.105783
2237.44, 0.105673
2238.41, 0.105728
2239.38, 0.105838
2240.34, 0.105838
2241.31, 0.105783
2242.28, 0.106167
2243.25, 0.106331
2244.22, 0.106112
2245.19, 0.106167
2246.17, 0.106057
2247.14, 0.106167
2248.12, 0.106167
2249.09, 0.106002
2250.07, 0.105728
2251.04, 0.106057
2252.02, 0.106550
2253.0, 0.106496
2253.98, 0.106221
2254.96, 0.106221
2255.94, 0.106276
2256.92, 0.105947
2257.91, 0.105728
2258.89, 0.106002
2259.88, 0.106331
2260.86, 0.106331
2261.85, 0.106167
2262.83, 0.106221
2263.82, 0.106550
2264.81, 0.106496
2265.8, 0.106112
2266.79, 0.106002
2267.78, 0.106112
2268.78, 0.106276
2269.77, 0.106221
2270.76, 0.106057
2271.76, 0.106112
2272.75, 0.106167
2273.75, 0.106386
2274.75, 0.106441
2275.75, 0.106276
2276.75, 0.106441
2277.75, 0.106660
2278.75, 0.106386
2279.75, 0.106112
2280.75, 0.106167
2281.76, 0.106221
2282.76, 0.106276
2283.77, 0.106441
2284.77, 0.106550
2285.78, 0.106386
2286.79, 0.106496
2287.8, 0.106660
2288.81, 0.106715
2289.82, 0.106605
2290.83, 0.106441
2291.84, 0.106496
2292.86, 0.106715
2293.87, 0.106715
2294.89, 0.106715
2295.91, 0.106660
2296.92, 0.106715
2297.94, 0.106660
2298.96, 0.106276
2299.98, 0.106167
2301.0, 0.106221
2302.02, 0.106386
2303.04, 0.106550
2304.07, 0.106605
2305.09, 0.106386
2306.12, 0.106386
2307.15, 0.106660
2308.17, 0.106770
2309.2, 0.106934
2310.23, 0.106934
2311.26, 0.106550
2312.29, 0.106276
2313.32, 0.106550
2314.35, 0.106605
2315.39, 0.106550
2316.42, 0.106550
2317.46, 0.106605
2318.5, 0.106715
2319.53, 0.106496
2320.57, 0.106770
2321.61, 0.106770
2322.65, 0.106550
2323.69, 0.106386
2324.73, 0.106276
2325.78, 0.106276
2326.82, 0.106112
2327.86, 0.106386
2328.91, 0.106550
2329.96, 0.106441
2331.01, 0.106167
2332.05, 0.106167
2333.1, 0.106550
2334.15, 0.106496
2335.21, 0.106276
2336.26, 0.106550
2337.31, 0.106550
2338.36, 0.106331
2339.42, 0.106112
2340.48, 0.106221
2341.53, 0.106441
2342.59, 0.106112
2343.65, 0.106057
2344.71, 0.106057
2345.77, 0.105947
2346.83, 0.105892
2347.9, 0.106002
2348.96, 0.106167
2350.02, 0.106276
2351.09, 0.106221
2352.16, 0.105892
2353.23, 0.105783
2354.29, 0.105947
2355.36, 0.106002
2356.43, 0.106386
2357.51, 0.106331
2358.58, 0.106112
2359.65, 0.105947
2360.73, 0.106002
2361.8, 0.106167
2362.88, 0.106386
2363.96, 0.106386
2365.03, 0.106331
2366.11, 0.106441
2367.19, 0.106496
2368.27, 0.106386
2369.36, 0.106276
2370.44, 0.106112
2371.53, 0.106167
2372.61, 0.106276
2373.7, 0.106112
2374.78, 0.105947
2375.87, 0.106167
2376.96, 0.106386
2378.05, 0.106221
2379.14, 0.105947
2380.24, 0.105892
2381.33, 0.106002
2382.42, 0.106057
2383.52, 0.106167
2384.61, 0.106112
2385.71, 0.105947
2386.81, 0.106002
2387.91, 0.106057
2389.01, 0.106167
2390.11, 0.106331
2391.22, 0.106167
2392.32, 0.106167
2393.42, 0.106386
2394.53, 0.106496
2395.64, 0.106441
2396.74, 0.106112
2397.85, 0.106002
2398.96, 0.106057
2400.07, 0.105892
2401.18, 0.106002
2402.3, 0.106386
2403.41, 0.106550
2404.52, 0.106496
2405.64, 0.106496
2406.76, 0.106221
2407.88, 0.106167
2408.99, 0.106276
2410.11, 0.106386
2411.23, 0.106276
2412.36, 0.106276
2413.48, 0.106112
2414.6, 0.105947
2415.73, 0.106112
2416.85, 0.106386
2417.98, 0.106331
2419.11, 0.106331
2420.24, 0.106496
2421.37, 0.106386
2422.5, 0.106002
2423.64, 0.106057
2424.77, 0.106331
2425.9, 0.106441
2427.04, 0.106276
2428.18, 0.106221
2429.31, 0.106550
2430.45, 0.106496
2431.59, 0.106331
2432.73, 0.106276
2433.88, 0.106002
2435.02, 0.105947
2436.16, 0.106167
2437.31, 0.106331
2438.45, 0.106441
2439.6, 0.106386
2440.75, 0.106221
2441.9, 0.106221
2443.05, 0.106167
2444.2, 0.106167
2445.35, 0.106112
2446.51, 0.105892
2447.67, 0.106112
2448.82, 0.106441
2449.98, 0.106496
2451.14, 0.106276
2452.3, 0.106057
2453.46, 0.106167
2454.62, 0.106276
2455.78, 0.106221
2456.94, 0.106112
2458.11, 0.106002
2459.28, 0.105947
2460.44, 0.105947
2461.61, 0.106002
2462.78, 0.106002
2463.95, 0.105838
2465.12, 0.105783
2466.3, 0.105947
2467.47, 0.105783
2468.65, 0.105728
2469.82, 0.106002
2471.0, 0.106112
2472.18, 0.106057
2473.36, 0.105838
2474.54, 0.105673
2475.72, 0.105892
2476.9, 0.105947
2478.08, 0.105947
2479.27, 0.106167
2480.46, 0.106002
2481.64, 0.105728
2482.83, 0.105783
2484.02, 0.105838
2485.21, 0.105838
2486.4, 0.105618
2487.6, 0.105508
2488.79, 0.105618
2489.99, 0.105728
2491.18, 0.105563
2492.38, 0.105618
2493.58, 0.105618
2494.78, 0.105563
2495.98, 0.105454
2497.18, 0.105563
2498.39, 0.105563
2499.59, 0.105399
2500.8, 0.105399
2502.01, 0.105454
2503.21, 0.105399
2504.42, 0.105399
2505.63, 0.105399
2506.84, 0.105234
2508.06, 0.105454
2509.27, 0.105344
2510.49, 0.105234
2511.7, 0.105399
2512.92, 0.105508
2514.14, 0.104960
2515.36, 0.104850
2516.58, 0.105015
2517.8, 0.105070
2519.03, 0.105070
2520.25, 0.105234
2521.48, 0.105179
2522.7, 0.105125
2523.93, 0.105289
2525.16, 0.105344
2526.39, 0.105454
2527.62, 0.105399
2528.86, 0.105344
2530.09, 0.105289
2531.33, 0.105125
2532.56, 0.105015
2533.8, 0.105015
2535.04, 0.104960
2536.28, 0.104850
2537.52, 0.105125
2538.76, 0.105344
2540.01, 0.105289
2541.25, 0.105070
2542.5, 0.104741
2543.75, 0.104850
2544.99, 0.104850
2546.24, 0.104850
2547.49, 0.104905
2548.75, 0.105015
2550.0, 0.104631
2551.26, 0.104412
2552.51, 0.104412
2553.77, 0.104741
2555.03, 0.105015
2556.29, 0.104960
2557.55, 0.104905
2558.81, 0.104576
2560.08, 0.103808
2561.34, 0.103370
2562.61, 0.103370
2563.88, 0.103370
2565.14, 0.103973
2566.41, 0.104850
2567.68, 0.104576
2568.96, 0.103863
2570.23, 0.104083
2571.51, 0.104357
2572.78, 0.103425
2574.06, 0.103534
2575.34, 0.103644
2576.62, 0.103370
2577.9, 0.103973
2579.18, 0.104412
2580.47, 0.104028
2581.75, 0.103808
2583.04, 0.103041
2584.32, 0.103096
2585.61, 0.103699
2586.9, 0.103425
2588.2, 0.103644
2589.49, 0.104302
2590.78, 0.104686
2592.08, 0.104412
2593.37, 0.102054
2594.67, 0.0999150
2595.97, 0.101779
2597.27, 0.103973
2598.57, 0.104686
2599.88, 0.104467
2601.18, 0.103973
2602.49, 0.103699
2603.79, 0.103150
2605.1, 0.102438
2606.41, 0.102931
2607.72, 0.103699
2609.03, 0.103973
2610.35, 0.104467
2611.66, 0.104631
2612.98, 0.104412
2614.3, 0.104467
2615.62, 0.103479
2616.94, 0.102931
2618.26, 0.103808
2619.58, 0.103315
2620.91, 0.103534
2622.23, 0.104686
2623.56, 0.105125
2624.89, 0.104357
2626.22, 0.103425
2627.55, 0.104138
2628.88, 0.103644
2630.21, 0.102712
2631.55, 0.103863
2632.89, 0.104083
2634.22, 0.104083
2635.56, 0.104741
2636.9, 0.104850
2638.25, 0.104850
2639.59, 0.104850
2640.93, 0.104741
2642.28, 0.104631
2643.63, 0.104741
2644.98, 0.104576
2646.33, 0.104467
2647.68, 0.104521
2649.03, 0.104412
2650.39, 0.104192
2651.74, 0.103479
2653.1, 0.103370
2654.46, 0.103644
2655.82, 0.103863
2657.18, 0.104247
2658.54, 0.103754
2659.9, 0.103315
2661.27, 0.103370
2662.64, 0.103205
2664.01, 0.101725
2665.38, 0.100463
2666.74, 0.100573
2668.12, 0.101560
2669.49, 0.100189
2670.87, 0.100244
2672.24, 0.102383
2673.62, 0.102821
2675.0, 0.101834
2676.38, 0.100628
2677.76, 0.100847
2679.15, 0.101121
2680.54, 0.101999
2681.92, 0.102109
2683.31, 0.101725
2684.7, 0.101615
2686.09, 0.101450
2687.48, 0.101396
2688.88, 0.101505
2690.27, 0.101341
2691.67, 0.100518
2693.07, 0.0990920
2694.47, 0.0985990
2695.87, 0.0989280
2697.27, 0.0990380
2698.67, 0.0985440
2700.08, 0.0975020
2701.49, 0.0967340
2702.9, 0.0966250
2704.31, 0.0959670
2705.72, 0.0952540
2707.13, 0.0941570
2708.54, 0.0927860
2709.96, 0.0913050
2711.38, 0.0910310
2712.8, 0.0916340
2714.22, 0.0912510
2715.64, 0.0903730
2717.06, 0.0894410
2718.49, 0.0876310
2719.91, 0.0851090
2721.34, 0.0846150
2722.77, 0.0839020
2724.2, 0.0822570
2725.63, 0.0820930
2727.07, 0.0819830
2728.5, 0.0813250
2729.94, 0.0805020
2731.38, 0.0795150
2732.82, 0.0784180
2734.26, 0.0772120
2735.7, 0.0768280
2737.15, 0.0762800
2738.59, 0.0744700
2740.04, 0.0733190
2741.49, 0.0735380
2742.94, 0.0739770
2744.39, 0.0737570
2745.84, 0.0734280
2747.3, 0.0729890
2748.76, 0.0725510
2750.21, 0.0718930
2751.67, 0.0711800
2753.14, 0.0703570
2754.6, 0.0689860
2756.06, 0.0687120
2757.53, 0.0694800
2759.0, 0.0694800
2760.46, 0.0690960
2761.94, 0.0686570
2763.41, 0.0686570
2764.88, 0.0692060
2766.36, 0.0692610
2767.83, 0.0691510
2769.31, 0.0691510
2770.79, 0.0690410
2772.27, 0.0695350
2773.76, 0.0698640
2775.24, 0.0698090
2776.73, 0.0696990
2778.22, 0.0695900
2779.71, 0.0693150
2781.2, 0.0689860
2782.69, 0.0689310
2784.18, 0.0688770
2785.68, 0.0683280
2787.18, 0.0679440
2788.68, 0.0681640
2790.18, 0.0685480
2791.68, 0.0682730
2793.19, 0.0677800
2794.69, 0.0676150
2796.2, 0.0675060
2797.71, 0.0672860
2799.22, 0.0669570
2800.73, 0.0664640
2802.24, 0.0658610
2803.76, 0.0654220
2805.28, 0.0653670
2806.8, 0.0651480
2808.32, 0.0648190
2809.84, 0.0644350
2811.36, 0.0640510
2812.89, 0.0635030
2814.42, 0.0630640
2815.94, 0.0626250
2817.48, 0.0621320
2819.01, 0.0617480
2820.54, 0.0614190
2822.08, 0.0610350
2823.61, 0.0607060
2825.15, 0.0604320
2826.69, 0.0600480
2828.23, 0.0595540
2829.78, 0.0591150
2831.32, 0.0587320
2832.87, 0.0585120
2834.42, 0.0583480
2835.97, 0.0582380
2837.52, 0.0581280
2839.08, 0.0580190
2840.63, 0.0580190
2842.19, 0.0579640
2843.75, 0.0578540
2845.31, 0.0580740
2846.87, 0.0581280
2848.44, 0.0581280
2850.0, 0.0581280
2851.57, 0.0580190
2853.14, 0.0577990
2854.71, 0.0579090
2856.28, 0.0579640
2857.86, 0.0577450
2859.43, 0.0574700
2861.01, 0.0575250
2862.59, 0.0574150
2864.17, 0.0571410
2865.76, 0.0566480
2867.34, 0.0561540
2868.93, 0.0557150
2870.52, 0.0554960
2872.11, 0.0553860
2873.7, 0.0552770
2875.29, 0.0550570
2876.89, 0.0547280
2878.49, 0.0546740
2880.08, 0.0546740
2881.69, 0.0548380
2883.29, 0.0551670
2884.89, 0.0552220
2886.5, 0.0553860
2888.11, 0.0554960
2889.72, 0.0554960
2891.33, 0.0555510
2892.94, 0.0556060
2894.56, 0.0556610
2896.17, 0.0556060
2897.79, 0.0554960
2899.42, 0.0554410
2901.04, 0.0551670
2902.66, 0.0548380
2904.29, 0.0546190
2905.92, 0.0543450
2907.55, 0.0540160
2909.18, 0.0539060
2910.81, 0.0538510
2912.45, 0.0538510
2914.08, 0.0536320
2915.72, 0.0534670
2917.36, 0.0533570
2919.01, 0.0533030
2920.65, 0.0531930
2922.3, 0.0530830
2923.94, 0.0529740
2925.59, 0.0529740
2927.25, 0.0528640
2928.9, 0.0525900
2930.56, 0.0524250
2932.21, 0.0524250
2933.87, 0.0523700
2935.53, 0.0523160
2937.2, 0.0522060
2938.86, 0.0519870
2940.53, 0.0517670
2942.2, 0.0514930
2943.87, 0.0512740
2945.54, 0.0510540
2947.22, 0.0508350
2948.89, 0.0507250
2950.57, 0.0505060
2952.25, 0.0502870
2953.93, 0.0500120
2955.62, 0.0499570
2957.3, 0.0501220
2958.99, 0.0501220
2960.68, 0.0500670
2962.37, 0.0502320
2964.07, 0.0504510
2965.76, 0.0506160
2967.46, 0.0506160
2969.16, 0.0508350
2970.86, 0.0511090
2972.56, 0.0512740
2974.27, 0.0514380
2975.98, 0.0516030
2977.69, 0.0517670
2979.4, 0.0519870
2981.11, 0.0519870
2982.83, 0.0518770
2984.54, 0.0520410
2986.26, 0.0521510
2987.98, 0.0520960
2989.71, 0.0519870
2991.43, 0.0518770
2993.16, 0.0518220
2994.89, 0.0518770
2996.62, 0.0518220
2998.35, 0.0519320
3000.09, 0.0519870
3001.83, 0.0517670
3003.57, 0.0517120
3005.31, 0.0516570
3007.05, 0.0515480
3008.79, 0.0513830
3010.54, 0.0513830
3012.29, 0.0514380
3014.04, 0.0514930
3015.8, 0.0513280
3017.55, 0.0513830
3019.31, 0.0513830
3021.07, 0.0514930
3022.83, 0.0516030
3024.59, 0.0516570
3026.36, 0.0516030
3028.13, 0.0516030
3029.9, 0.0517120
3031.67, 0.0517120
3033.44, 0.0518220
3035.22, 0.0519870
3037.0, 0.0519870
3038.78, 0.0520410
3040.56, 0.0520960
3042.34, 0.0522060
3044.13, 0.0522610
3045.92, 0.0522060
3047.71, 0.0520410
3049.5, 0.0521510
3051.3, 0.0522610
3053.09, 0.0522610
3054.89, 0.0522610
3056.69, 0.0523160
3058.5, 0.0523160
3060.3, 0.0523700
3062.11, 0.0523700
3063.92, 0.0523700
3065.73, 0.0524800
3067.55, 0.0524800
3069.36, 0.0523700
3071.18, 0.0523700
3073.0, 0.0525350
3074.82, 0.0525350
3076.65, 0.0525900
3078.48, 0.0527540
3080.31, 0.0528090
3082.14, 0.0528090
3083.97, 0.0528090
3085.8, 0.0530280
3087.64, 0.0531380
3089.48, 0.0530830
3091.33, 0.0530830
3093.17, 0.0532480
3095.02, 0.0533030
3096.87, 0.0534670
3098.72, 0.0536320
3100.57, 0.0538510
3102.43, 0.0540160
3104.28, 0.0542350
3106.14, 0.0543450
3108.01, 0.0543990
3109.87, 0.0545090
3111.74, 0.0545640
3113.61, 0.0545640
3115.48, 0.0547830
3117.35, 0.0549480
3119.23, 0.0550570
3121.1, 0.0552770
3122.98, 0.0554410
3124.87, 0.0556060
3126.75, 0.0558250
3128.64, 0.0559350
3130.53, 0.0558800
3132.42, 0.0559350
3134.31, 0.0562090
3136.21, 0.0564280
3138.11, 0.0565930
3140.01, 0.0566480
3141.91, 0.0568120
3143.82, 0.0570320
3145.73, 0.0571960
3147.64, 0.0573610
3149.55, 0.0574150
3151.46, 0.0574700
3153.38, 0.0576900
3155.3, 0.0578540
3157.22, 0.0579640
3159.14, 0.0579090
3161.07, 0.0579640
3163.0, 0.0581830
3164.93, 0.0583480
3166.86, 0.0585120
3168.8, 0.0585670
3170.74, 0.0586220
3172.68, 0.0588410
3174.62, 0.0590060
3176.56, 0.0591150
3178.51, 0.0592250
3180.46, 0.0593350
3182.42, 0.0594990
3184.37, 0.0597190
3186.33, 0.0598830
3188.29, 0.0599930
3190.25, 0.0599380
3192.21, 0.0599930
3194.18, 0.0601570
3196.15, 0.0603220
3198.12, 0.0604860
3200.09, 0.0607060
3202.07, 0.0608150
3204.05, 0.0609250
3206.03, 0.0609800
3208.02, 0.0611440
3210.0, 0.0612540
3211.99, 0.0613090
3213.98, 0.0614190
3215.98, 0.0616380
3217.97, 0.0616930
3219.97, 0.0619120
3221.97, 0.0620770
3223.98, 0.0621860
3225.98, 0.0623510
3227.99, 0.0624060
3230.0, 0.0624060
3232.02, 0.0625700
3234.03, 0.0627900
3236.05, 0.0628440
3238.07, 0.0628440
3240.1, 0.0630090
3242.12, 0.0630640
3244.15, 0.0631730
3246.18, 0.0632830
3248.22, 0.0634480
3250.25, 0.0635030
3252.29, 0.0635030
3254.33, 0.0636120
3256.38, 0.0637770
3258.43, 0.0638320
3260.47, 0.0637770
3262.53, 0.0638860
3264.58, 0.0641060
3266.64, 0.0643250
3268.7, 0.0643250
3270.76, 0.0642700
3272.82, 0.0644900
3274.89, 0.0646540
3276.96, 0.0646540
3279.04, 0.0645440
3281.11, 0.0647090
3283.19, 0.0650930
3285.27, 0.0652570
3287.35, 0.0652020
3289.44, 0.0653120
3291.53, 0.0655320
3293.62, 0.0655860
3295.71, 0.0655320
3297.81, 0.0656960
3299.91, 0.0659150
3302.01, 0.0660250
3304.11, 0.0661350
3306.22, 0.0661900
3308.33, 0.0663540
3310.44, 0.0666280
3312.56, 0.0667380
3314.68, 0.0666830
3316.8, 0.0669020
3318.92, 0.0672310
3321.05, 0.0673410
3323.18, 0.0674510
3325.31, 0.0676150
3327.44, 0.0676700
3329.58, 0.0678350
3331.72, 0.0679440
3333.86, 0.0679990
3336.01, 0.0681640
3338.16, 0.0684380
3340.31, 0.0687120
3342.46, 0.0688220
3344.61, 0.0690960
3346.77, 0.0693700
3348.94, 0.0695350
3351.1, 0.0696990
3353.27, 0.0698090
3355.44, 0.0699730
3357.61, 0.0702480
3359.79, 0.0704120
3361.97, 0.0705220
3364.15, 0.0706860
3366.33, 0.0708510
3368.52, 0.0709060
3370.71, 0.0711800
3372.9, 0.0715090
3375.1, 0.0717280
3377.3, 0.0719480
3379.5, 0.0722770
3381.71, 0.0724410
3383.91, 0.0724960
3386.12, 0.0727150
3388.34, 0.0728800
3390.55, 0.0729890
3392.77, 0.0732090
3394.99, 0.0733730
3397.22, 0.0735930
3399.45, 0.0738670
3401.68, 0.0740860
3403.91, 0.0743060
3406.15, 0.0745800
3408.39, 0.0747990
3410.63, 0.0749640
3412.87, 0.0751830
3415.12, 0.0754570
3417.37, 0.0756220
3419.63, 0.0757860
3421.88, 0.0760060
3424.14, 0.0763350
3426.41, 0.0766640
3428.67, 0.0767730
3430.94, 0.0768830
3433.21, 0.0770480
3435.49, 0.0772670
3437.77, 0.0775410
3440.05, 0.0777060
3442.33, 0.0779800
3444.62, 0.0781990
3446.91, 0.0783090
3449.2, 0.0784180
3451.5, 0.0786380
3453.8, 0.0790220
3456.1, 0.0792410
3458.41, 0.0794060
3460.72, 0.0795700
3463.03, 0.0797350
3465.34, 0.0798440
3467.66, 0.0799540
3469.98, 0.0801730
3472.31, 0.0804470
3474.63, 0.0807220
3476.96, 0.0809410
3479.3, 0.0810510
3481.64, 0.0812150
3483.97, 0.0814350
3486.32, 0.0816540
3488.66, 0.0817090
3491.01, 0.0818180
3493.36, 0.0820380
3495.72, 0.0819830
3498.08, 0.0820930
3500.44, 0.0823120
3502.81, 0.0824760
3505.18, 0.0824760
3507.55, 0.0825860
3509.92, 0.0827510
3512.3, 0.0829700
3514.68, 0.0831350
3517.06, 0.0832440
3519.45, 0.0832990
3521.84, 0.0834090
3524.24, 0.0835180
3526.64, 0.0836280
3529.04, 0.0837930
3531.44, 0.0838470
3533.85, 0.0838470
3536.26, 0.0840670
3538.67, 0.0842860
3541.09, 0.0843960
3543.51, 0.0845050
3545.93, 0.0846700
3548.36, 0.0848890
3550.79, 0.0849990
3553.22, 0.0851090
3555.66, 0.0852180
3558.1, 0.0853280
3560.54, 0.0854380
3562.99, 0.0856020
3565.44, 0.0857670
3567.9, 0.0859310
3570.35, 0.0860410
3572.81, 0.0860960
3575.28, 0.0862600
3577.75, 0.0865350
3580.22, 0.0865350
3582.69, 0.0865890
3585.17, 0.0869180
3587.65, 0.0871380
3590.14, 0.0872470
3592.62, 0.0873570
3595.11, 0.0874120
3597.61, 0.0874670
3600.11, 0.0875220
3602.61, 0.0877410
3605.11, 0.0878510
3607.62, 0.0880700
3610.14, 0.0881800
3612.65, 0.0883990
3615.17, 0.0885090
3617.69, 0.0885640
3620.22, 0.0886730
3622.75, 0.0887830
3625.28, 0.0890570
3627.82, 0.0891670
3630.36, 0.0891670
3632.9, 0.0892760
3635.45, 0.0893860
3638.0, 0.0894410
3640.56, 0.0896050
3643.12, 0.0897700
3645.68, 0.0898800
3648.24, 0.0898800
3650.81, 0.0900990
3653.39, 0.0902090
3655.96, 0.0902090
3658.54, 0.0904280
3661.13, 0.0905380
3663.71, 0.0904830
3666.3, 0.0905380
3668.9, 0.0907020
3671.5, 0.0907570
3674.1, 0.0907570
3676.7, 0.0908670
3679.31, 0.0910310
3681.93, 0.0910310
3684.54, 0.0910860
3687.17, 0.0913050
3689.79, 0.0914150
3692.42, 0.0914700
3695.05, 0.0914700
3697.69, 0.0915250
3700.32, 0.0915800
3702.97, 0.0915250
3705.61, 0.0915250
3708.27, 0.0916340
3710.92, 0.0917990
3713.58, 0.0918540
3716.24, 0.0917990
3718.91, 0.0919630
3721.58, 0.0920180
3724.25, 0.0920730
3726.93, 0.0921830
3729.61, 0.0922930
3732.29, 0.0922930
3734.98, 0.0923470
3737.67, 0.0923470
3740.37, 0.0925120
3743.07, 0.0926220
3745.78, 0.0926760
3748.49, 0.0927310
3751.2, 0.0927860
3753.91, 0.0928960
3756.63, 0.0930050
3759.36, 0.0931700
3762.09, 0.0933890
3764.82, 0.0934990
3767.55, 0.0934990
3770.29, 0.0935540
3773.04, 0.0937180
3775.78, 0.0937180
3778.54, 0.0938830
3781.29, 0.0939380
3784.05, 0.0939920
3786.82, 0.0941020
3789.59, 0.0942670
3792.36, 0.0944310
3795.13, 0.0945410
3797.92, 0.0946510
3800.7, 0.0948150
3803.49, 0.0947600
3806.28, 0.0947600
3809.08, 0.0948150
3811.88, 0.0948150
3814.68, 0.0948700
3817.49, 0.0950340
3820.31, 0.0950890
3823.12, 0.0950890
3825.94, 0.0950890
3828.77, 0.0950890
3831.6, 0.0950890
3834.43, 0.0951440
3837.27, 0.0951440
3840.11, 0.0952540
3842.96, 0.0953630
3845.81, 0.0953630
3848.67, 0.0953630
3851.53, 0.0953630
3854.39, 0.0954180
3857.26, 0.0954730
3860.13, 0.0955280
3863.01, 0.0955280
3865.89, 0.0955830
3868.77, 0.0956380
3871.66, 0.0956380
3874.55, 0.0956380
3877.45, 0.0956920
3880.35, 0.0957470
3883.26, 0.0956920
3886.17, 0.0958020
3889.09, 0.0958570
3892.01, 0.0959120
3894.93, 0.0959670
3897.86, 0.0960210
3900.79, 0.0959670
3903.73, 0.0959670
3906.67, 0.0960210
3909.62, 0.0960210
3912.57, 0.0960760
3915.52, 0.0961310
3918.48, 0.0960760
3921.45, 0.0960210
3924.42, 0.0960760
3927.39, 0.0961860
3930.37, 0.0961310
3933.35, 0.0960760
3936.34, 0.0960760
3939.33, 0.0959670
3942.32, 0.0960210
3945.32, 0.0960210
3948.33, 0.0959120
3951.34, 0.0959120
3954.35, 0.0958570
3957.37, 0.0957470
3960.39, 0.0957470
3963.42, 0.0958020
3966.45, 0.0958020
3969.49, 0.0958020
3972.53, 0.0957470
3975.58, 0.0956380
3978.63, 0.0955830
3981.68, 0.0955280
3984.75, 0.0955830
3987.81, 0.0955830
3990.88, 0.0955830
3993.95, 0.0955280
3997.03, 0.0954730
4000.12, 0.0954180
4003.21, 0.0953630
4006.3, 0.0954730
4009.4, 0.0955830
4012.5, 0.0955830
4015.61, 0.0955830
4018.72, 0.0956380
4021.84, 0.0956920
4024.96, 0.0956380
4028.09, 0.0955830
4031.22, 0.0956380
4034.36, 0.0957470
4037.5, 0.0958570
4040.65, 0.0959120
4043.8, 0.0959120
4046.96, 0.0958570
4050.12, 0.0959120
4053.29, 0.0959120
4056.46, 0.0957470
4059.64, 0.0957470
4062.82, 0.0958020
4066.0, 0.0958570
4069.19, 0.0957470
4072.39, 0.0957470
4075.59, 0.0956920
4078.8, 0.0956380
4082.01, 0.0955280
4085.23, 0.0954730
4088.45, 0.0955280
4091.68, 0.0954180
4094.91, 0.0951990
4098.15, 0.0951440
4101.39, 0.0951440
4104.63, 0.0950340
4107.89, 0.0950340
4111.14, 0.0949800
4114.41, 0.0949250
4117.67, 0.0948700
4120.95, 0.0947600
4124.23, 0.0946510
4127.51, 0.0945960
4130.8, 0.0944860
4134.09, 0.0943760
4137.39, 0.0943220
4140.7, 0.0942120
4144.01, 0.0941570
4147.32, 0.0941570
4150.64, 0.0941020
4153.97, 0.0940470
4157.3, 0.0939920
4160.64, 0.0938830
4163.98, 0.0938280
4167.33, 0.0936630
4170.68, 0.0935540
4174.04, 0.0934990
4177.4, 0.0934440
4180.77, 0.0934440
4184.14, 0.0933340
4187.52, 0.0932250
4190.91, 0.0930600
4194.3, 0.0930050
4197.69, 0.0930600
4201.1, 0.0929510
4204.5, 0.0927860
4207.92, 0.0927310
4211.34, 0.0926760
4214.76, 0.0924020
4218.19, 0.0921280
4221.62, 0.0919630
4225.06, 0.0918540
4228.51, 0.0917440
4231.96, 0.0916340
4235.42, 0.0916890
4238.88, 0.0916890
4242.35, 0.0918540
4245.83, 0.0919090
4249.31, 0.0920180
4252.79, 0.0921830
4256.28, 0.0921280
4259.78, 0.0916340
4263.29, 0.0909760
4266.79, 0.0905380
4270.31, 0.0905380
4273.83, 0.0908670
4277.35, 0.0910860
4280.89, 0.0913600
4284.42, 0.0914700
4287.97, 0.0915250
4291.52, 0.0916340
4295.07, 0.0917990
4298.63, 0.0919090
4302.2, 0.0919630
4305.78, 0.0921830
4309.35, 0.0924020
4312.94, 0.0925120
4316.53, 0.0926220
4320.13, 0.0927310
4323.73, 0.0927860
4327.34, 0.0927860
4330.96, 0.0927860
4334.58, 0.0927310
4338.21, 0.0926760
4341.84, 0.0926760
4345.48, 0.0925120
4349.12, 0.0922930
4352.77, 0.0921280
4356.43, 0.0920180
4360.1, 0.0919090
4363.76, 0.0917440
4367.44, 0.0914150
4371.12, 0.0911960
4374.81, 0.0908120
4378.51, 0.0905380
4382.21, 0.0902630
4385.92, 0.0898800
4389.63, 0.0896050
4393.35, 0.0893860
4397.08, 0.0891120
4400.81, 0.0888380
4404.55, 0.0885090
4408.29, 0.0882340
4412.04, 0.0880150
4415.8, 0.0877960
4419.57, 0.0875220
4423.34, 0.0872470
4427.12, 0.0869730
4430.9, 0.0868090
4434.69, 0.0865890
4438.49, 0.0864250
4442.29, 0.0862600
4446.1, 0.0859860
4449.92, 0.0857670
4453.74, 0.0854930
4457.57, 0.0851640
4461.41, 0.0849440
4465.25, 0.0847800
4469.1, 0.0847250
4472.95, 0.0847800
4476.82, 0.0849990
4480.69, 0.0852730
4484.56, 0.0854930
4488.44, 0.0856570
4492.33, 0.0858760
4496.23, 0.0861510
4500.13, 0.0865890
4504.04, 0.0870830
4507.96, 0.0876310
4511.88, 0.0882890
4515.81, 0.0888930
4519.75, 0.0894960
4523.69, 0.0900440
4527.65, 0.0905380
4531.6, 0.0909220
4535.57, 0.0914150
4539.54, 0.0917440
4543.52, 0.0920730
4547.5, 0.0924570
4551.5, 0.0928410
4555.5, 0.0930600
4559.5, 0.0931150
4563.52, 0.0931700
4567.54, 0.0933890
4571.56, 0.0935540
4575.6, 0.0935540
4579.64, 0.0934440
4583.69, 0.0935540
4587.75, 0.0936090
4591.81, 0.0935540
4595.88, 0.0935540
4599.96, 0.0935540
4604.04, 0.0934440
4608.14, 0.0933340
4612.24, 0.0932800
4616.34, 0.0930600
4620.46, 0.0929510
4624.58, 0.0927860
4628.71, 0.0926220
4632.84, 0.0923470
4636.99, 0.0920730
4641.14, 0.0916340
4645.3, 0.0913050
4649.47, 0.0909220
4653.64, 0.0905380
4657.82, 0.0900990
4662.01, 0.0896600
4666.21, 0.0892220
4670.41, 0.0887830
4674.62, 0.0883990
4678.84, 0.0881250
4683.07, 0.0880700
4687.3, 0.0881800
4691.54, 0.0884540
4695.79, 0.0888380
4700.05, 0.0892220
4704.31, 0.0896050
4708.59, 0.0899340
4712.87, 0.0901540
4717.15, 0.0904830
4721.45, 0.0905930
4725.76, 0.0905930
4730.07, 0.0905930
4734.39, 0.0906470
4738.72, 0.0906470
4743.05, 0.0905380
4747.39, 0.0904280
4751.75, 0.0903180
4756.1, 0.0901540
4760.47, 0.0899340
4764.85, 0.0897150
4769.23, 0.0894960
4773.62, 0.0893310
4778.02, 0.0890570
4782.43, 0.0888930
4786.85, 0.0886730
4791.27, 0.0883990
4795.7, 0.0881250
4800.14, 0.0877960
4804.59, 0.0874120
4809.05, 0.0871380
4813.51, 0.0868090
4817.99, 0.0864800
4822.47, 0.0860960
4826.96, 0.0857120
4831.46, 0.0852180
4835.96, 0.0847800
4840.48, 0.0841760
4845.0, 0.0837380
4849.54, 0.0831350
4854.08, 0.0824760
4858.63, 0.0818180
4863.18, 0.0811060
4867.75, 0.0802280
4872.33, 0.0792410
4876.91, 0.0781440
4881.5, 0.0769380
4886.1, 0.0755120
4890.71, 0.0739770
4895.33, 0.0723860
4899.96, 0.0706860
4904.59, 0.0691510
4909.24, 0.0676700
4913.89, 0.0663540
4918.55, 0.0652020
4923.22, 0.0641610
4927.9, 0.0632830
4932.59, 0.0627350
4937.29, 0.0622410
4942.0, 0.0616930
4946.71, 0.0611990
4951.44, 0.0607060
4956.17, 0.0601570
4960.91, 0.0594440
4965.67, 0.0587320
4970.43, 0.0580740
4975.2, 0.0574700
4979.98, 0.0569220
4984.76, 0.0565380
4989.56, 0.0561540
4994.37, 0.0558800
4999.18, 0.0556060
5004.01, 0.0555510
5008.84, 0.0555510
5013.69, 0.0554410
5018.54, 0.0552770
5023.4, 0.0553320
5028.28, 0.0554410
5033.16, 0.0554410
5038.05, 0.0554410
5042.95, 0.0555510
5047.86, 0.0556060
5052.78, 0.0556060
5057.71, 0.0555510
5062.65, 0.0556060
5067.6, 0.0557150
5072.56, 0.0559350
5077.53, 0.0560450
5082.5, 0.0562640
5087.49, 0.0565380
5092.49, 0.0568670
5097.5, 0.0570860
5102.51, 0.0573060
5107.54, 0.0574150
5112.58, 0.0575250
5117.62, 0.0576900
5122.68, 0.0577450
5127.75, 0.0576900
5132.82, 0.0577450
5137.91, 0.0578540
5143.01, 0.0579090
5148.12, 0.0580190
5153.23, 0.0582930
5158.36, 0.0584570
5163.5, 0.0585670
5168.65, 0.0586770
5173.81, 0.0588410
5178.98, 0.0588410
5184.15, 0.0588960
5189.34, 0.0589510
5194.54, 0.0589510
5199.75, 0.0587320
5204.98, 0.0585120
5210.21, 0.0579640
5215.45, 0.0575250
5220.7, 0.0573060
5225.96, 0.0567030
5231.23, 0.0559350
5236.52, 0.0553320
5241.81, 0.0546740
5247.12, 0.0541250
5252.44, 0.0537410
5257.76, 0.0533570
5263.1, 0.0529740
5268.45, 0.0526450
5273.81, 0.0523160
5279.18, 0.0520960
5284.56, 0.0519320
5289.95, 0.0516030
5295.36, 0.0514380
5300.77, 0.0515480
5306.2, 0.0514930
5311.63, 0.0513830
5317.08, 0.0513280
5322.54, 0.0513830
5328.01, 0.0513830
5333.49, 0.0513280
5338.98, 0.0512740
5344.49, 0.0509990
5350.0, 0.0507800
5355.53, 0.0509450
5361.07, 0.0512190
5366.62, 0.0514930
5372.18, 0.0517120
5377.75, 0.0519320
5383.34, 0.0522610
5388.93, 0.0527540
5394.54, 0.0533030
5400.16, 0.0538510
5405.79, 0.0543990
5411.44, 0.0550570
5417.09, 0.0553860
5422.76, 0.0557700
5428.43, 0.0568670
5434.12, 0.0577450
5439.83, 0.0582380
5445.54, 0.0585670
5451.26, 0.0587860
5457.0, 0.0587860
5462.75, 0.0584570
5468.52, 0.0585120
5474.29, 0.0584570
5480.08, 0.0581280
5485.88, 0.0581280
5491.69, 0.0579640
5497.51, 0.0576350
5503.35, 0.0571960
5509.2, 0.0568670
5515.06, 0.0564830
5520.93, 0.0560990
5526.82, 0.0557700
5532.71, 0.0555510
5538.63, 0.0552770
5544.55, 0.0549480
5550.49, 0.0545640
5556.44, 0.0544540
5562.4, 0.0544540
5568.37, 0.0543450
5574.36, 0.0537960
5580.36, 0.0536860
5586.37, 0.0542900
5592.4, 0.0546190
5598.44, 0.0545640
5604.49, 0.0547280
5610.56, 0.0548930
5616.63, 0.0550570
5622.73, 0.0554960
5628.83, 0.0558250
5634.95, 0.0558250
5641.08, 0.0558250
5647.23, 0.0568670
5653.39, 0.0579640
5659.56, 0.0590060
5665.74, 0.0599930
5671.94, 0.0603770
5678.15, 0.0611990
5684.38, 0.0621860
5690.62, 0.0625700
5696.87, 0.0632280
5703.14, 0.0633930
5709.42, 0.0629540
5715.72, 0.0632830
5722.03, 0.0636120
5728.35, 0.0637220
5734.69, 0.0635570
5741.03, 0.0632830
5747.4, 0.0628440
5753.78, 0.0630090
5760.17, 0.0619670
5766.58, 0.0607060
5773.0, 0.0615280
5779.44, 0.0619670
5785.88, 0.0618570
5792.35, 0.0615830
5798.83, 0.0610900
5805.32, 0.0607610
5811.83, 0.0600480
5818.35, 0.0585120
5824.89, 0.0581280
5831.45, 0.0585120
5838.01, 0.0585670
5844.59, 0.0582930
5851.19, 0.0578540
5857.8, 0.0571960
5864.43, 0.0564830
5871.07, 0.0559350
5877.73, 0.0541250
5884.4, 0.0539060
5891.09, 0.0539610
5897.79, 0.0535220
5904.5, 0.0542350
5911.23, 0.0542350
5917.98, 0.0537960
5924.75, 0.0532480
5931.53, 0.0519320
5938.32, 0.0513280
5945.13, 0.0524800
5951.96, 0.0529740
5958.8, 0.0530830
5965.65, 0.0525350
5972.53, 0.0528640
5979.42, 0.0533030
5986.32, 0.0530280
5993.24, 0.0534670
6000.18, 0.0542350
6007.13, 0.0541800
6014.1, 0.0540160
6021.08, 0.0545090
6028.09, 0.0548380
6035.1, 0.0545640
6042.14, 0.0529740
6049.19, 0.0516570
6056.25, 0.0534120
6063.34, 0.0541250
6070.44, 0.0533570
6077.55, 0.0534670
6084.69, 0.0541800
6091.84, 0.0541250
6099.0, 0.0536860
6106.19, 0.0525350
6113.39, 0.0515480
6120.61, 0.0521510
6127.84, 0.0525350
6135.09, 0.0521510
6142.36, 0.0516570
6149.65, 0.0513280
6156.95, 0.0506700
6164.27, 0.0505060
6171.61, 0.0505060
6178.97, 0.0496280
6186.34, 0.0491350
6193.73, 0.0497930
6201.14, 0.0499030
6208.57, 0.0498480
6216.01, 0.0498480
6223.47, 0.0497930
6230.95, 0.0499030
6238.45, 0.0500120
6245.97, 0.0501220
6253.5, 0.0503410
6261.06, 0.0505610
6268.63, 0.0507800
6276.21, 0.0510540
6283.82, 0.0512740
6291.45, 0.0514930
6299.1, 0.0517670
6306.76, 0.0520960
6314.44, 0.0524800
6322.14, 0.0528090
6329.86, 0.0531380
6337.6, 0.0527540
6345.35, 0.0527540
6353.13, 0.0540160
6360.92, 0.0546190
6368.74, 0.0545640
6376.57, 0.0553320
6384.43, 0.0560450
6392.3, 0.0564830
6400.19, 0.0564280
6408.1, 0.0548380
6416.03, 0.0545640
6423.98, 0.0562640
6431.95, 0.0569770
6439.94, 0.0575250
6447.95, 0.0575800
6455.98, 0.0574700
6464.03, 0.0571410
6472.1, 0.0562640
6480.19, 0.0552220
6488.31, 0.0538510
6496.44, 0.0534120
6504.59, 0.0543450
6512.76, 0.0540700
6520.95, 0.0531380
6529.16, 0.0531380
6537.4, 0.0527540
6545.65, 0.0522060
6553.92, 0.0518770
6562.22, 0.0516030
6570.54, 0.0508900
6578.88, 0.0513280
6587.23, 0.0518220
6595.61, 0.0520410
6604.02, 0.0525350
6612.44, 0.0525900
6620.89, 0.0523160
6629.35, 0.0512740
6637.84, 0.0506700
6646.35, 0.0520410
6654.88, 0.0529740
6663.44, 0.0526990
6672.01, 0.0520960
6680.61, 0.0518220
6689.23, 0.0522610
6697.88, 0.0524800
6706.54, 0.0520410
6715.23, 0.0520410
6723.94, 0.0525350
6732.67, 0.0530280
6741.42, 0.0533030
6750.2, 0.0534670
6759.0, 0.0536860
6767.82, 0.0537410
6776.67, 0.0536320
6785.54, 0.0532480
6794.44, 0.0536860
6803.35, 0.0547830
6812.29, 0.0551120
6821.26, 0.0548930
6830.24, 0.0551670
6839.25, 0.0556610
6848.29, 0.0554410
6857.35, 0.0543990
6866.43, 0.0545090
6875.54, 0.0559900
6884.67, 0.0565380
6893.82, 0.0565930
6903.0, 0.0564280
6912.2, 0.0567570
6921.43, 0.0570860
6930.69, 0.0570860
6939.96, 0.0570860
6949.27, 0.0567030
6958.59, 0.0558800
6967.95, 0.0563190
6977.33, 0.0569220
6986.73, 0.0567570
6996.16, 0.0565930
7005.61, 0.0568670
7015.09, 0.0568120
7024.6, 0.0566480
7034.13, 0.0563740
7043.69, 0.0557150
7053.27, 0.0561540
7062.88, 0.0568670
7072.52, 0.0571410
7082.18, 0.0572510
7091.87, 0.0573610
7101.58, 0.0574700
7111.32, 0.0573060
7121.09, 0.0571960
7130.88, 0.0573610
7140.71, 0.0571960
7150.56, 0.0569770
7160.43, 0.0569220
7170.33, 0.0569770
7180.27, 0.0574150
7190.23, 0.0576900
7200.21, 0.0575800
7210.23, 0.0575800
7220.27, 0.0579640
7230.34, 0.0579640
7240.44, 0.0578540
7250.56, 0.0576900
7260.72, 0.0575800
7270.9, 0.0574150
7281.12, 0.0573060
7291.36, 0.0574150
7301.63, 0.0574150
7311.93, 0.0574700
7322.25, 0.0575250
7332.61, 0.0573610
7343.0, 0.0574150
7353.41, 0.0577450
7363.86, 0.0579090
7374.33, 0.0579090
7384.83, 0.0580740
7395.37, 0.0581830
7405.93, 0.0582930
7416.53, 0.0584570
7427.15, 0.0585670
7437.81, 0.0587320
7448.5, 0.0588410
7459.22, 0.0587860
7469.96, 0.0590060
7480.74, 0.0593350
7491.55, 0.0596640
7502.39, 0.0599930
7513.27, 0.0603770
7524.17, 0.0607060
7535.11, 0.0610350
7546.08, 0.0613090
7557.08, 0.0616380
7568.11, 0.0619120
7579.17, 0.0621320
7590.27, 0.0624610
7601.4, 0.0629540
7612.56, 0.0635570
7623.76, 0.0641060
7634.98, 0.0648190
7646.24, 0.0656410
7657.54, 0.0665190
7668.87, 0.0673960
7680.23, 0.0681640
7691.62, 0.0690410
7703.05, 0.0699730
7714.51, 0.0709060
7726.01, 0.0718930
7737.54, 0.0730440
7749.11, 0.0741960
7760.71, 0.0752380
7772.35, 0.0762800
7784.02, 0.0772670
7795.72, 0.0783090
7807.46, 0.0794060
7819.23, 0.0807220
7831.04, 0.0822570
7842.89, 0.0839020
7854.77, 0.0857670
7866.69, 0.0879050
7878.65, 0.0902090
7890.64, 0.0927860
7902.67, 0.0955280
7914.74, 0.0985440
7926.84, 0.101889
7938.98, 0.105563
7951.16, 0.109347
7963.37, 0.113241
7975.62, 0.117079
7987.91, 0.120918
8000.24, 0.124592
8012.6, 0.128321
8025.01, 0.131995
8037.45, 0.135944
8049.93, 0.140002
8062.45, 0.144114
8075.01, 0.148282
8087.61, 0.152560
8100.24, 0.156947
8112.91, 0.161389
8125.63, 0.165885
8138.39, 0.170108
8151.18, 0.173782
8164.02, 0.176963
8176.9, 0.179321
8189.81, 0.180637
8202.77, 0.181021
8215.77, 0.180801
8228.82, 0.179924
8241.9, 0.178553
8255.02, 0.177017
8268.19, 0.175372
8281.39, 0.173453
8294.65, 0.171534
8307.94, 0.169724
8321.28, 0.168188
8334.66, 0.167037
8348.08, 0.165995
8361.54, 0.165227
8375.05, 0.164679
8388.6, 0.164295
8402.2, 0.163966
8415.84, 0.163637
8429.52, 0.163418
8443.25, 0.163088
8457.02, 0.162759
8470.84, 0.162485
8484.7, 0.161992
8498.61, 0.161279
8512.57, 0.160347
8526.57, 0.159030
8540.62, 0.157276
8554.71, 0.154643
8568.85, 0.150805
8583.04, 0.144937
8597.27, 0.137150
8611.55, 0.129418
8625.88, 0.125744
8640.26, 0.128540
8654.68, 0.135505
8669.16, 0.142524
8683.68, 0.147789
8698.25, 0.151518
8712.87, 0.154150
8727.53, 0.156124
8742.25, 0.157989
8757.02, 0.159359
8771.83, 0.160676
8786.7, 0.162156
8801.62, 0.163527
8816.59, 0.164679
8831.61, 0.165830
8846.68, 0.166982
8861.8, 0.167969
8876.97, 0.168846
8892.2, 0.169450
8907.48, 0.169998
8922.81, 0.170766
8938.2, 0.171369
8953.63, 0.172027
8969.13, 0.172795
8984.67, 0.173617
9000.27, 0.174166
9015.92, 0.174495
9031.63, 0.174824
9047.39, 0.174934
9063.21, 0.174934
9079.08, 0.174934
9095.01, 0.174714
9111.0, 0.174440
9127.04, 0.174166
9143.13, 0.174001
9159.28, 0.173617
9175.49, 0.173179
9191.76, 0.172850
9208.09, 0.172630
9224.47, 0.172192
9240.92, 0.171588
9257.42, 0.170821
9273.98, 0.169834
9290.6, 0.168463
9307.28, 0.166214
9324.02, 0.162759
9340.82, 0.158153
9357.68, 0.152285
9374.6, 0.145266
9391.58, 0.137589
9408.62, 0.130240
9425.73, 0.123660
9442.9, 0.117847
9460.13, 0.113076
9477.42, 0.109347
9494.78, 0.106221
9512.2, 0.103589
9529.69, 0.100957
9547.24, 0.0986540
9564.86, 0.0966800
9582.54, 0.0949800
9600.28, 0.0936090
9618.1, 0.0923470
9635.97, 0.0911410
9653.92, 0.0901540
9671.93, 0.0891120
9690.01, 0.0881800
9708.16, 0.0873570
9726.37, 0.0864800
9744.65, 0.0855470
9763.0, 0.0847250
9781.43, 0.0839570
9799.92, 0.0826960
9818.48, 0.0815440
9837.1, 0.0807770
9855.8, 0.0802280
9874.58, 0.0798990
9893.42, 0.0797350
9912.34, 0.0792410
9931.33, 0.0784730
9950.39, 0.0778700
9969.52, 0.0774310
9988.74, 0.0771020
10008.0, 0.0767180
10027.4, 0.0763350
10046.8, 0.0758410
10066.3, 0.0754570
10085.9, 0.0751830
10105.6, 0.0749090
10125.3, 0.0746350
10145.1, 0.0744700
10165.0, 0.0740860
10185.0, 0.0737570
10205.0, 0.0736480
10225.2, 0.0735380
10245.4, 0.0733190
10265.7, 0.0730440
10286.0, 0.0727150
10306.5, 0.0724410
10327.0, 0.0722220
10347.6, 0.0721120
10368.3, 0.0719480
10389.1, 0.0716190
10409.9, 0.0713440
10430.9, 0.0712350
10451.9, 0.0710150
10473.0, 0.0706860
10494.2, 0.0705220
10515.5, 0.0703020
10536.9, 0.0700280
10558.4, 0.0698640
10579.9, 0.0696440
10601.5, 0.0694250
10623.3, 0.0693150
10645.1, 0.0691510
10667.0, 0.0690410
10689.0, 0.0688220
10711.1, 0.0685480
10733.2, 0.0683280
10755.5, 0.0681090
10777.9, 0.0679440
10800.3, 0.0677250
10822.9, 0.0675060
10845.5, 0.0672310
10868.2, 0.0669570
10891.1, 0.0666280
10914.0, 0.0662440
10937.0, 0.0659700
10960.2, 0.0657510
10983.4, 0.0656960
11006.7, 0.0655860
11030.1, 0.0652570
11053.6, 0.0649830
11077.3, 0.0647090
11101.0, 0.0643250
11124.8, 0.0641610
11148.7, 0.0641610
11172.7, 0.0639960
11196.9, 0.0636670
11221.1, 0.0635030
11245.4, 0.0631730
11269.9, 0.0630090
11294.4, 0.0628440
11319.1, 0.0625700
11343.9, 0.0622410
11368.8, 0.0620220
11393.7, 0.0618030
11418.8, 0.0614190
11444.0, 0.0612540
11469.4, 0.0612540
11494.8, 0.0610350
11520.3, 0.0607610
11546.0, 0.0605410
11571.8, 0.0603220
11597.7, 0.0601030
11623.7, 0.0598280
11649.8, 0.0596090
11676.0, 0.0593900
11702.4, 0.0591700
11728.9, 0.0588960
11755.5, 0.0584570
11782.2, 0.0580190
11809.0, 0.0576350
11836.0, 0.0571960
11863.0, 0.0567570
11890.3, 0.0562640
11917.6, 0.0557700
11945.0, 0.0552220
11972.6, 0.0549480
12000.4, 0.0546740
12028.2, 0.0541800
12056.2, 0.0536320
12084.3, 0.0531380
12112.5, 0.0524800
12140.9, 0.0519320
12169.4, 0.0514930
12198.0, 0.0508900
12226.8, 0.0502870
12255.7, 0.0497930
12284.7, 0.0493540
12313.9, 0.0500670
12343.2, 0.0525350
12372.7, 0.0571410
12402.3, 0.0633930
12432.0, 0.0692060
12461.9, 0.0731540
12491.9, 0.0748540
12522.1, 0.0749640
12552.4, 0.0738120
12582.9, 0.0715090
12613.5, 0.0690410
12644.3, 0.0677800
12675.2, 0.0683830
12706.3, 0.0707410
12737.5, 0.0738120
12768.9, 0.0761150
12800.4, 0.0771020
12832.1, 0.0764440
12863.9, 0.0745800
12895.9, 0.0721120
12928.1, 0.0697540
12960.4, 0.0681090
12992.9, 0.0667930
13025.5, 0.0656960
13058.3, 0.0650380
13091.3, 0.0643250
13124.4, 0.0635030
13157.8, 0.0628990
13191.2, 0.0626800
13224.9, 0.0624060
13258.7, 0.0621860
13292.7, 0.0619120
13326.9, 0.0615830
13361.2, 0.0612540
13395.7, 0.0609800
13430.4, 0.0605960
13465.3, 0.0602120
13500.4, 0.0599380
13535.7, 0.0598830
13571.1, 0.0598280
13606.7, 0.0593900
13642.5, 0.0593350
13678.5, 0.0592250
13714.7, 0.0591700
13751.1, 0.0593350
13787.6, 0.0590060
13824.4, 0.0587860
13861.4, 0.0586770
13898.5, 0.0585120
13935.9, 0.0585120
13973.5, 0.0584030
14011.2, 0.0578540
14049.2, 0.0575800
14087.4, 0.0575250
14125.8, 0.0571960
14164.3, 0.0568670
14203.2, 0.0564830
14242.2, 0.0560450
14281.4, 0.0557150
14320.9, 0.0563190
14360.5, 0.0577990
14400.4, 0.0593350
14440.5, 0.0603220
14480.9, 0.0607610
14521.4, 0.0608700
14562.2, 0.0607610
14603.3, 0.0607610
14644.5, 0.0604860
14686.0, 0.0602120
14727.7, 0.0602120
14769.7, 0.0601570
14811.9, 0.0603220
14854.3, 0.0604320
14897.0, 0.0601570
14939.9, 0.0594990
14983.1, 0.0590060
15026.5, 0.0592250
15070.2, 0.0592800
15114.2, 0.0591150
15158.3, 0.0592250
15202.8, 0.0595540
15247.5, 0.0597190
15292.5, 0.0595540
15337.7, 0.0592250
15383.2, 0.0590060
15429.0, 0.0588960
15475.1, 0.0590060
15521.4, 0.0591700
15568.0, 0.0594440
15614.9, 0.0594990
15662.1, 0.0591150
15709.6, 0.0588410
15757.3, 0.0588410
15805.4, 0.0589510
15853.7, 0.0587320
15902.3, 0.0584030
15951.2, 0.0581280
16000.5, 0.0579090
16050.0, 0.0579640
16099.8, 0.0581280
16150.0, 0.0582380
16200.5, 0.0583480
16251.3, 0.0582380
16302.4, 0.0583480
16353.8, 0.0581830
16405.5, 0.0579640
16457.6, 0.0580190
16510.0, 0.0579090
16562.8, 0.0576350
16615.9, 0.0573610
16669.3, 0.0573610
16723.1, 0.0573610
16777.2, 0.0578540
16831.7, 0.0582930
16886.5, 0.0580190
16941.7, 0.0580190
16997.2, 0.0581830
17053.1, 0.0577990
17109.4, 0.0573610
17166.1, 0.0571960
17223.1, 0.0573610
17280.5, 0.0572510
17338.3, 0.0568670
17396.5, 0.0567030
17455.1, 0.0567030
17514.0, 0.0565930
17573.4, 0.0567570
17633.2, 0.0570320
17693.4, 0.0578540
17754.0, 0.0587860
17815.0, 0.0594440
17876.4, 0.0610900
17938.3, 0.0643800
18000.5, 0.0684930
18063.3, 0.0733190
18126.4, 0.0792410
18190.0, 0.0849990
18254.1, 0.0890570
18318.6, 0.0915800
18383.5, 0.0931150
18449.0, 0.0936090
18514.9, 0.0931150
18581.2, 0.0917440
18648.0, 0.0894410
18715.4, 0.0869730
18783.2, 0.0845600
18851.5, 0.0819830
18920.3, 0.0801180
18989.6, 0.0781990
19059.4, 0.0762800
19129.7, 0.0753480
19200.6, 0.0747440
19272.0, 0.0749640
19343.9, 0.0762250
19416.3, 0.0790220
19489.3, 0.0837930
19562.8, 0.0916340
19637.0, 0.102492
19711.6, 0.116586
19786.8, 0.133109
19862.6, 0.145304
19939.0, 0.153613
20016.0, 0.158838
20093.6, 0.163504
20171.8, 0.166984
20250.6, 0.169616
20330.0, 0.171380
20410.0, 0.172623
20490.7, 0.173327
20572.0, 0.172730
20654.0, 0.171062
20736.6, 0.170001
20819.9, 0.170059
20903.8, 0.169722
20988.5, 0.167688
21073.8, 0.165384
21159.8, 0.162685
21246.5, 0.158694
21334.0, 0.154616
21422.1, 0.150538
21511.0, 0.146268
21600.7, 0.142682
21691.0, 0.139886
21782.1, 0.137939
21874.0, 0.134825
21966.7, 0.129465
22060.2, 0.125426
22154.5, 0.121030
22249.6, 0.113713
22345.5, 0.104854
22442.2, 0.0968820
22539.8, 0.0904140
22638.2, 0.0852180
22737.5, 0.0820170
22837.7, 0.0805710
22938.7, 0.0786050
23040.7, 0.0760210
23143.5, 0.0744020
23247.3, 0.0729560
23352.1, 0.0705170
23457.7, 0.0678460
23564.4, 0.0659950
23672.0, 0.0648770
23780.5, 0.0641830
23890.1, 0.0619950
24000.7, 0.0590550
24112.3, 0.0571840
24225.0, 0.0544270
24338.7, 0.0506000
24453.5, 0.0468600
24569.4, 0.0426470
24686.4, 0.0413560
24804.5, 0.0503020
24923.8, 0.0700150
25044.2, 0.0873770
25165.8, 0.0953010
25288.6, 0.0956770
25412.5, 0.0899030
25537.7, 0.0802920
25664.1, 0.0746620
25791.8, 0.0765900
25920.8, 0.0863070
26051.1, 0.0989550
26182.6, 0.108296
26315.5, 0.114716
26449.8, 0.119440
26585.4, 0.122891
26722.5, 0.122389
26860.9, 0.118543
27000.8, 0.114880
27142.1, 0.110715
27285.0, 0.106541
27429.4, 0.102049
27575.3, 0.0973350
27722.7, 0.0941440
27871.8, 0.0934120
28022.4, 0.0918500
28174.7, 0.0900470
28328.7, 0.0882640
28484.4, 0.0864420
28641.7, 0.0844560
28800.9, 0.0819210
28961.8, 0.0812460
29124.5, 0.0813040
29289.0, 0.0808600
29455.4, 0.0798960
29623.8, 0.0786140
29794.0, 0.0783440
29966.3, 0.0775060
30140.5, 0.0765900
30316.7, 0.0771780
30495.1, 0.0789900
30675.5, 0.0782290
30858.1, 0.0778040
31042.8, 0.0768020
31229.8, 0.0758090
31419.1, 0.0764640
31610.7, 0.0772070
31804.6, 0.0772450
32000.9, 0.0767250
32199.7, 0.0768310
32400.9, 0.0771490
32604.8, 0.0768310
32811.1, 0.0774380
33020.1, 0.0804170
33231.8, 0.0794720
33446.2, 0.0775830
33663.4, 0.0775540
33883.4, 0.0776410
34106.3, 0.0769460
34332.1, 0.0781510
34561.0, 0.0796650
34792.9, 0.0792790
35028.0, 0.0787400
35266.3, 0.0798670
35507.8, 0.0826340
35752.7, 0.0832120
36001.0, 0.0828170
36252.8, 0.0798290
36508.1, 0.0783060
36767.0, 0.0781230
37029.7, 0.0772650
37296.1, 0.0771200
37566.3, 0.0772160
37840.5, 0.0787780
38118.8, 0.0826530
38401.2, 0.0844080
38687.8, 0.0840510
38978.6, 0.0852660
39273.9, 0.0903360
39573.7, 0.0919560
39878.1, 0.0914930
40187.3, 0.0954650
40501.2, 0.0971900
40820.0, 0.0960630
41144.0, 0.0961590
41473.2, 0.0958890
41807.6, 0.0960630
42147.5, 0.0973160
42493.0, 0.0990510
42844.2, 0.101866
43201.2, 0.104016
43564.3, 0.106001
43933.5, 0.110204
44309.0, 0.108527
44691.0, 0.107794
45079.6, 0.107843
45475.0, 0.105009
45877.5, 0.105934
46287.1, 0.109549
46704.2, 0.112084
47128.7, 0.111448
47561.1, 0.113154
48001.5, 0.114996
48450.1, 0.112441
48907.2, 0.112904
49373.0, 0.118350
49847.7, 0.113530
50331.5, 0.110060
50825.0, 0.110609
51328.2, 0.113068
51841.5, 0.113145
52365.1, 0.112711
52899.4, 0.115246
53444.8, 0.115352
54001.5, 0.113299
54570.1, 0.113848
55150.6, 0.115063
55743.6, 0.114234
56349.5, 0.119093
56968.7, 0.119912
57601.7, 0.121319
58248.9, 0.124915
58910.9, 0.122515
59588.1, 0.119391
60281.0, 0.119951
60990.2, 0.118206
61716.3, 0.116490
62459.8, 0.119382
63221.6, 0.124221
64002.1, 0.123276
64802.1, 0.126342
65622.1, 0.133292
66463.4, 0.136464
67326.6, 0.131056
68212.4, 0.124115
69121.9, 0.120124
70056.0, 0.120529
71015.7, 0.127778
72002.0, 0.133167
73016.3, 0.127711
74059.4, 0.126641
75132.7, 0.129581
76237.6, 0.126294
77375.5, 0.124125
78547.9, 0.129812
79756.3, 0.126833
81002.5, 0.126313
82288.5, 0.128810
83615.7, 0.127190
84986.5, 0.128733
86402.9, 0.124414
87867.4, 0.120654
89382.4, 0.126284
90950.5, 0.125542
92574.6, 0.124510
94257.2, 0.128260
96002.7, 0.124539
97814.1, 0.123209
99695.1, 0.129803
101650.0, 0.129311
103683.0, 0.130265
105799.0, 0.128106
108003.0, 0.129176
110301.0, 0.133206
112699.0, 0.133871
115204.0, 0.125638
117822.0, 0.124626
120562.0, 0.129716
123433.0, 0.137283
126443.0, 0.136753
129604.0, 0.132733
132926.0, 0.142074
136424.0, 0.149179
140111.0, 0.138604
144003.0, 0.128974
148118.0, 0.140031
152474.0, 0.133042
157095.0, 0.130545
162004.0, 0.137052
167231.0, 0.139269
172805.0, 0.142450
178764.0, 0.156756
185148.0, 0.126130
192005.0, 0.122949
199390.0, 0.123267
207366.0, 0.0880810
216006.0, 0.0486150
