Database of Origin, USGS Spectral Database
Sample Description, See USGS database for additional info
Date Added,2016-08-10 02:57:40.858236

Data ID,USGS_hor06          
Sample ID, hornblende_hs177.10027
Mineral Name, hornblende
Material Class,Inosilicate

Wavelength
1607.49, 0.194508
1607.99, 0.194897
1608.49, 0.195285
1608.99, 0.195674
1609.49, 0.195771
1609.99, 0.196160
1610.49, 0.196305
1610.99, 0.196985
1611.49, 0.197325
1611.99, 0.197520
1612.49, 0.197568
1612.99, 0.197811
1613.49, 0.198005
1614.0, 0.198102
1614.5, 0.198248
1615.0, 0.198782
1615.51, 0.199122
1616.01, 0.199851
1616.51, 0.200288
1617.02, 0.200725
1617.52, 0.201016
1618.03, 0.201113
1618.53, 0.201113
1619.04, 0.201356
1619.54, 0.201648
1620.05, 0.201939
1620.55, 0.202133
1621.06, 0.202425
1621.57, 0.202570
1622.08, 0.202910
1622.58, 0.203250
1623.09, 0.203639
1623.6, 0.203930
1624.11, 0.204416
1624.62, 0.204562
1625.13, 0.204805
1625.64, 0.204950
1626.15, 0.205436
1626.66, 0.205824
1627.17, 0.206164
1627.68, 0.206262
1628.19, 0.206407
1628.7, 0.206601
1629.21, 0.206844
1629.72, 0.206796
1630.24, 0.207427
1630.75, 0.207718
1631.26, 0.208010
1631.78, 0.208010
1632.29, 0.208593
1632.8, 0.208787
1633.32, 0.208884
1633.83, 0.209078
1634.35, 0.209564
1634.86, 0.209661
1635.38, 0.209418
1635.9, 0.209515
1636.41, 0.210293
1636.93, 0.211118
1637.45, 0.211410
1637.96, 0.211118
1638.48, 0.211070
1639.0, 0.211167
1639.52, 0.211507
1640.04, 0.211750
1640.56, 0.212284
1641.08, 0.212527
1641.59, 0.212624
1642.11, 0.212915
1642.63, 0.213498
1643.16, 0.213595
1643.68, 0.213789
1644.2, 0.213886
1644.72, 0.214178
1645.24, 0.214469
1645.76, 0.214712
1646.29, 0.214809
1646.81, 0.215295
1647.33, 0.215683
1647.86, 0.216072
1648.38, 0.216072
1648.9, 0.216315
1649.43, 0.216752
1649.95, 0.217092
1650.48, 0.216898
1651.0, 0.217092
1651.53, 0.217723
1652.06, 0.218209
1652.58, 0.218355
1653.11, 0.218403
1653.64, 0.218452
1654.17, 0.218694
1654.69, 0.219083
1655.22, 0.219277
1655.75, 0.219132
1656.28, 0.219666
1656.81, 0.220200
1657.34, 0.220249
1657.87, 0.220200
1658.4, 0.220783
1658.93, 0.220880
1659.46, 0.220880
1659.99, 0.221171
1660.52, 0.221560
1661.05, 0.221803
1661.59, 0.222046
1662.12, 0.222483
1662.65, 0.222483
1663.19, 0.222531
1663.72, 0.222920
1664.26, 0.223163
1664.79, 0.223211
1665.32, 0.223357
1665.86, 0.223697
1666.39, 0.224085
1666.93, 0.224474
1667.47, 0.224474
1668.0, 0.224377
1668.54, 0.224571
1669.08, 0.225105
1669.61, 0.225300
1670.15, 0.225639
1670.69, 0.225639
1671.23, 0.225639
1671.77, 0.225979
1672.31, 0.226708
1672.85, 0.226999
1673.39, 0.227145
1673.93, 0.227194
1674.47, 0.227291
1675.01, 0.227291
1675.55, 0.227485
1676.09, 0.227776
1676.64, 0.228311
1677.18, 0.228505
1677.72, 0.228748
1678.26, 0.229039
1678.81, 0.229282
1679.35, 0.229331
1679.89, 0.229622
1680.44, 0.229428
1680.98, 0.229525
1681.53, 0.229719
1682.07, 0.229962
1682.62, 0.230399
1683.17, 0.230739
1683.71, 0.231273
1684.26, 0.231662
1684.81, 0.231516
1685.36, 0.231516
1685.9, 0.231856
1686.45, 0.232002
1687.0, 0.232390
1687.55, 0.232876
1688.1, 0.232584
1688.65, 0.232973
1689.2, 0.233216
1689.75, 0.233264
1690.3, 0.233167
1690.85, 0.233507
1691.41, 0.233847
1691.96, 0.234090
1692.51, 0.234333
1693.06, 0.234527
1693.61, 0.234576
1694.17, 0.234770
1694.72, 0.234964
1695.28, 0.235207
1695.83, 0.235207
1696.39, 0.235547
1696.94, 0.235838
1697.5, 0.235887
1698.05, 0.235936
1698.61, 0.236081
1699.17, 0.236276
1699.72, 0.236567
1700.28, 0.236615
1700.84, 0.236955
1701.4, 0.237393
1701.95, 0.237441
1702.51, 0.237247
1703.07, 0.237490
1703.63, 0.237587
1704.19, 0.237830
1704.75, 0.237927
1705.31, 0.238267
1705.88, 0.238704
1706.44, 0.238947
1707.0, 0.238850
1707.56, 0.239044
1708.12, 0.239092
1708.69, 0.239238
1709.25, 0.239481
1709.81, 0.239724
1710.38, 0.239918
1710.94, 0.240258
1711.51, 0.240355
1712.07, 0.240598
1712.64, 0.240695
1713.2, 0.240986
1713.77, 0.241229
1714.34, 0.241666
1714.9, 0.241958
1715.47, 0.242201
1716.04, 0.242201
1716.61, 0.242492
1717.18, 0.242638
1717.74, 0.242832
1718.31, 0.242978
1718.88, 0.242978
1719.45, 0.243075
1720.02, 0.243463
1720.59, 0.243463
1721.17, 0.243803
1721.74, 0.244143
1722.31, 0.244338
1722.88, 0.244435
1723.45, 0.244580
1724.03, 0.244678
1724.6, 0.245017
1725.18, 0.245163
1725.75, 0.245260
1726.33, 0.245649
1726.9, 0.245892
1727.48, 0.245989
1728.05, 0.246037
1728.63, 0.246280
1729.2, 0.246669
1729.78, 0.246717
1730.36, 0.246960
1730.94, 0.247057
1731.51, 0.247203
1732.09, 0.247397
1732.67, 0.247689
1733.25, 0.247883
1733.83, 0.248126
1734.41, 0.248126
1734.99, 0.248417
1735.57, 0.248660
1736.15, 0.248806
1736.73, 0.248757
1737.32, 0.248903
1737.9, 0.249048
1738.48, 0.249388
1739.07, 0.249728
1739.65, 0.250214
1740.23, 0.250457
1740.82, 0.250457
1741.4, 0.250166
1741.99, 0.250505
1742.57, 0.250943
1743.16, 0.251234
1743.74, 0.251283
1744.33, 0.251185
1744.92, 0.251331
1745.51, 0.251768
1746.09, 0.252060
1746.68, 0.252157
1747.27, 0.252205
1747.86, 0.252351
1748.45, 0.252351
1749.04, 0.252545
1749.63, 0.252691
1750.22, 0.253080
1750.81, 0.253322
1751.4, 0.253517
1751.99, 0.253565
1752.59, 0.253857
1753.18, 0.254148
1753.77, 0.254245
1754.37, 0.254197
1754.96, 0.254439
1755.56, 0.254731
1756.15, 0.254876
1756.74, 0.254925
1757.34, 0.255216
1757.94, 0.255459
1758.53, 0.255751
1759.13, 0.256091
1759.73, 0.256139
1760.32, 0.256042
1760.92, 0.256333
1761.52, 0.256333
1762.12, 0.256431
1762.72, 0.256479
1763.32, 0.256625
1763.92, 0.256819
1764.52, 0.257013
1765.12, 0.256965
1765.72, 0.257256
1766.32, 0.257499
1766.92, 0.257450
1767.53, 0.257596
1768.13, 0.257985
1768.73, 0.258325
1769.34, 0.258519
1769.94, 0.258470
1770.55, 0.258470
1771.15, 0.258616
1771.76, 0.258810
1772.36, 0.259102
1772.97, 0.259199
1773.57, 0.259102
1774.18, 0.259345
1774.79, 0.259490
1775.4, 0.259782
1776.0, 0.259830
1776.61, 0.259879
1777.22, 0.259830
1777.83, 0.260219
1778.44, 0.260510
1779.05, 0.260704
1779.66, 0.260802
1780.27, 0.261044
1780.88, 0.261142
1781.5, 0.261239
1782.11, 0.261287
1782.72, 0.261336
1783.33, 0.261676
1783.95, 0.262161
1784.56, 0.262259
1785.18, 0.262356
1785.79, 0.262453
1786.41, 0.262453
1787.02, 0.262501
1787.64, 0.262744
1788.26, 0.262938
1788.87, 0.263036
1789.49, 0.262890
1790.11, 0.263036
1790.73, 0.263376
1791.35, 0.263521
1791.96, 0.263667
1792.58, 0.263813
1793.21, 0.263861
1793.83, 0.264104
1794.45, 0.264153
1795.07, 0.264153
1795.69, 0.264347
1796.31, 0.264784
1796.93, 0.264978
1797.56, 0.265124
1798.18, 0.265221
1798.8, 0.265464
1799.43, 0.265610
1800.05, 0.265755
1800.68, 0.265901
1801.3, 0.265950
1801.93, 0.266095
1802.56, 0.266192
1803.18, 0.266290
1803.81, 0.266387
1804.44, 0.266387
1805.07, 0.266484
1805.7, 0.266872
1806.33, 0.267261
1806.95, 0.267067
1807.58, 0.267309
1808.22, 0.267552
1808.85, 0.267698
1809.48, 0.267941
1810.11, 0.268184
1810.74, 0.268087
1811.38, 0.268232
1812.01, 0.268281
1812.64, 0.268329
1813.28, 0.268669
1813.91, 0.269009
1814.55, 0.269058
1815.18, 0.269155
1815.82, 0.269252
1816.45, 0.269446
1817.09, 0.269543
1817.73, 0.269738
1818.36, 0.269738
1819.0, 0.269932
1819.64, 0.269932
1820.28, 0.269835
1820.92, 0.269981
1821.56, 0.270078
1822.2, 0.270369
1822.84, 0.270612
1823.48, 0.270855
1824.12, 0.271146
1824.76, 0.271195
1825.41, 0.271146
1826.05, 0.271195
1826.69, 0.271680
1827.34, 0.271875
1827.98, 0.271729
1828.63, 0.271778
1829.27, 0.272020
1829.92, 0.272069
1830.56, 0.272312
1831.21, 0.272409
1831.86, 0.272360
1832.5, 0.272603
1833.15, 0.272943
1833.8, 0.273040
1834.45, 0.272943
1835.1, 0.272797
1835.75, 0.272846
1836.4, 0.273235
1837.05, 0.273283
1837.7, 0.273477
1838.35, 0.273866
1839.01, 0.273575
1839.66, 0.273623
1840.31, 0.274109
1840.96, 0.274206
1841.62, 0.274012
1842.27, 0.274449
1842.93, 0.274740
1843.58, 0.274789
1844.24, 0.274934
1844.9, 0.275080
1845.55, 0.274886
1846.21, 0.274740
1846.87, 0.274594
1847.53, 0.274934
1848.18, 0.275032
1848.84, 0.275517
1849.5, 0.275760
1850.16, 0.275954
1850.82, 0.275954
1851.48, 0.275857
1852.14, 0.275517
1852.81, 0.275663
1853.47, 0.275711
1854.13, 0.276003
1854.8, 0.276343
1855.46, 0.276343
1856.12, 0.276197
1856.79, 0.276489
1857.45, 0.276828
1858.12, 0.276926
1858.79, 0.276634
1859.45, 0.276391
1860.12, 0.276634
1860.79, 0.276926
1861.46, 0.277071
1862.12, 0.277120
1862.79, 0.277217
1863.46, 0.277411
1864.13, 0.277606
1864.8, 0.277703
1865.48, 0.277703
1866.15, 0.277800
1866.82, 0.277606
1867.49, 0.277460
1868.16, 0.277654
1868.84, 0.277994
1869.51, 0.277994
1870.19, 0.277848
1870.86, 0.277751
1871.54, 0.278334
1872.21, 0.278188
1872.89, 0.278043
1873.56, 0.278480
1874.24, 0.278820
1874.92, 0.278723
1875.6, 0.279014
1876.28, 0.279014
1876.96, 0.279014
1877.64, 0.279354
1878.32, 0.279305
1879.0, 0.279402
1879.68, 0.279597
1880.36, 0.279694
1881.04, 0.279937
1881.73, 0.280082
1882.41, 0.280228
1883.09, 0.279985
1883.78, 0.279937
1884.46, 0.280228
1885.15, 0.280471
1885.83, 0.280471
1886.52, 0.280568
1887.21, 0.280617
1887.89, 0.280762
1888.58, 0.280859
1889.27, 0.280617
1889.96, 0.280568
1890.65, 0.280859
1891.34, 0.280957
1892.03, 0.281054
1892.72, 0.281054
1893.41, 0.281248
1894.1, 0.281588
1894.79, 0.281637
1895.49, 0.281782
1896.18, 0.281879
1896.87, 0.281977
1897.57, 0.282074
1898.26, 0.282219
1898.96, 0.281928
1899.65, 0.281831
1900.35, 0.282171
1901.05, 0.282268
1901.74, 0.282414
1902.44, 0.282316
1903.14, 0.282608
1903.84, 0.282851
1904.54, 0.282656
1905.24, 0.282462
1905.94, 0.282656
1906.64, 0.282948
1907.34, 0.283288
1908.04, 0.283336
1908.75, 0.283385
1909.45, 0.283482
1910.15, 0.283628
1910.86, 0.283434
1911.56, 0.283434
1912.27, 0.283676
1912.97, 0.283482
1913.68, 0.283676
1914.39, 0.284065
1915.09, 0.284113
1915.8, 0.284065
1916.51, 0.284016
1917.22, 0.284259
1917.93, 0.284502
1918.64, 0.284502
1919.35, 0.284259
1920.06, 0.284211
1920.77, 0.284405
1921.48, 0.284793
1922.19, 0.285085
1922.91, 0.285230
1923.62, 0.285182
1924.33, 0.285230
1925.05, 0.285230
1925.76, 0.285085
1926.48, 0.285036
1927.19, 0.285230
1927.91, 0.285182
1928.63, 0.285328
1929.35, 0.285328
1930.07, 0.285279
1930.78, 0.285473
1931.5, 0.285522
1932.22, 0.285570
1932.94, 0.285716
1933.66, 0.285619
1934.39, 0.285716
1935.11, 0.285910
1935.83, 0.285910
1936.55, 0.285813
1937.28, 0.285910
1938.0, 0.286153
1938.73, 0.286348
1939.45, 0.286250
1940.18, 0.286250
1940.9, 0.286348
1941.63, 0.286639
1942.36, 0.286785
1943.09, 0.286639
1943.81, 0.286396
1944.54, 0.286396
1945.27, 0.286493
1946.0, 0.286687
1946.73, 0.286785
1947.47, 0.286639
1948.2, 0.286590
1948.93, 0.286542
1949.66, 0.286639
1950.4, 0.286833
1951.13, 0.286687
1951.86, 0.286785
1952.6, 0.286687
1953.34, 0.286687
1954.07, 0.286590
1954.81, 0.286736
1955.55, 0.286785
1956.29, 0.286785
1957.02, 0.286687
1957.76, 0.286736
1958.5, 0.286785
1959.24, 0.286833
1959.98, 0.286882
1960.72, 0.286930
1961.47, 0.286930
1962.21, 0.286979
1962.95, 0.286930
1963.7, 0.286979
1964.44, 0.286833
1965.18, 0.286882
1965.93, 0.287076
1966.67, 0.287027
1967.42, 0.286882
1968.17, 0.287027
1968.92, 0.287027
1969.66, 0.287076
1970.41, 0.287027
1971.16, 0.287076
1971.91, 0.287173
1972.66, 0.287222
1973.41, 0.287125
1974.16, 0.287173
1974.92, 0.287125
1975.67, 0.286979
1976.42, 0.286979
1977.18, 0.287076
1977.93, 0.287270
1978.69, 0.287367
1979.44, 0.287222
1980.2, 0.287270
1980.95, 0.287416
1981.71, 0.287416
1982.47, 0.287319
1983.23, 0.287270
1983.99, 0.287270
1984.74, 0.287367
1985.51, 0.287465
1986.27, 0.287610
1987.03, 0.287610
1987.79, 0.287465
1988.55, 0.287416
1989.32, 0.287562
1990.08, 0.287707
1990.84, 0.287804
1991.61, 0.287659
1992.37, 0.287513
1993.14, 0.287562
1993.9, 0.287659
1994.67, 0.287707
1995.44, 0.287902
1996.21, 0.287902
1996.98, 0.287853
1997.75, 0.287707
1998.52, 0.287756
1999.29, 0.287756
2000.06, 0.287707
2000.83, 0.287756
2001.6, 0.287902
2002.38, 0.287950
2003.15, 0.287950
2003.93, 0.287853
2004.7, 0.287950
2005.48, 0.287999
2006.25, 0.288047
2007.03, 0.287999
2007.81, 0.288096
2008.58, 0.287999
2009.36, 0.288047
2010.14, 0.287999
2010.92, 0.288047
2011.7, 0.287950
2012.48, 0.287853
2013.26, 0.287804
2014.05, 0.287902
2014.83, 0.288144
2015.61, 0.288144
2016.4, 0.287950
2017.18, 0.287902
2017.97, 0.288047
2018.75, 0.288144
2019.54, 0.287999
2020.32, 0.287999
2021.11, 0.287804
2021.9, 0.287707
2022.69, 0.287804
2023.48, 0.287853
2024.27, 0.287804
2025.06, 0.287853
2025.85, 0.287853
2026.64, 0.287853
2027.44, 0.287853
2028.23, 0.287853
2029.02, 0.287659
2029.82, 0.287659
2030.61, 0.287610
2031.41, 0.287707
2032.2, 0.287707
2033.0, 0.287610
2033.8, 0.287367
2034.6, 0.287513
2035.4, 0.287416
2036.2, 0.287416
2037.0, 0.287416
2037.8, 0.287416
2038.6, 0.287319
2039.4, 0.287270
2040.2, 0.287222
2041.01, 0.287270
2041.81, 0.287270
2042.61, 0.287222
2043.42, 0.287125
2044.22, 0.287027
2045.03, 0.287027
2045.84, 0.287076
2046.65, 0.286979
2047.46, 0.286979
2048.26, 0.286979
2049.07, 0.286785
2049.88, 0.286687
2050.69, 0.286785
2051.51, 0.286590
2052.32, 0.286445
2053.13, 0.286542
2053.94, 0.286542
2054.76, 0.286348
2055.57, 0.286250
2056.39, 0.286250
2057.2, 0.286056
2058.02, 0.285959
2058.84, 0.286056
2059.66, 0.285959
2060.48, 0.285813
2061.29, 0.285716
2062.11, 0.285716
2062.94, 0.285716
2063.76, 0.285813
2064.58, 0.285813
2065.4, 0.285668
2066.22, 0.285425
2067.05, 0.285376
2067.87, 0.285230
2068.7, 0.285133
2069.52, 0.285036
2070.35, 0.284988
2071.18, 0.284939
2072.0, 0.284891
2072.83, 0.284939
2073.66, 0.284793
2074.49, 0.284648
2075.32, 0.284599
2076.15, 0.284599
2076.98, 0.284648
2077.82, 0.284405
2078.65, 0.284211
2079.48, 0.284065
2080.32, 0.284065
2081.15, 0.284016
2081.99, 0.284016
2082.83, 0.284016
2083.66, 0.283919
2084.5, 0.283676
2085.34, 0.283676
2086.18, 0.283773
2087.02, 0.283773
2087.86, 0.283434
2088.7, 0.283288
2089.54, 0.283094
2090.39, 0.283045
2091.23, 0.283142
2092.07, 0.283191
2092.92, 0.283239
2093.76, 0.283288
2094.61, 0.283191
2095.45, 0.282996
2096.3, 0.282851
2097.15, 0.282802
2098.0, 0.282754
2098.85, 0.282656
2099.7, 0.282511
2100.55, 0.282414
2101.4, 0.282462
2102.25, 0.282462
2103.1, 0.282219
2103.96, 0.282219
2104.81, 0.282268
2105.67, 0.282219
2106.52, 0.282074
2107.38, 0.282025
2108.24, 0.281977
2109.09, 0.282074
2109.95, 0.281831
2110.81, 0.281734
2111.67, 0.281734
2112.53, 0.281637
2113.39, 0.281588
2114.25, 0.281539
2115.12, 0.281442
2115.98, 0.281539
2116.84, 0.281394
2117.71, 0.281248
2118.58, 0.281151
2119.44, 0.281102
2120.31, 0.280957
2121.18, 0.280859
2122.04, 0.280859
2122.91, 0.280957
2123.78, 0.280859
2124.65, 0.280665
2125.52, 0.280568
2126.4, 0.280568
2127.27, 0.280422
2128.14, 0.280374
2129.02, 0.280180
2129.89, 0.280131
2130.77, 0.280034
2131.64, 0.280034
2132.52, 0.280082
2133.4, 0.280180
2134.27, 0.280034
2135.15, 0.280034
2136.03, 0.279937
2136.91, 0.279888
2137.79, 0.279888
2138.68, 0.279888
2139.56, 0.279840
2140.44, 0.279888
2141.33, 0.279645
2142.21, 0.279694
2143.1, 0.279597
2143.99, 0.279451
2144.87, 0.279257
2145.76, 0.279402
2146.65, 0.279500
2147.54, 0.279402
2148.43, 0.279305
2149.32, 0.279402
2150.21, 0.279354
2151.1, 0.279208
2151.99, 0.279208
2152.89, 0.279305
2153.78, 0.279257
2154.68, 0.278965
2155.57, 0.278771
2156.47, 0.278868
2157.37, 0.278820
2158.27, 0.278917
2159.16, 0.278868
2160.06, 0.278674
2160.96, 0.278480
2161.86, 0.278334
2162.77, 0.278285
2163.67, 0.278334
2164.57, 0.278285
2165.48, 0.278237
2166.38, 0.278188
2167.29, 0.278188
2168.2, 0.278140
2169.1, 0.278091
2170.01, 0.277848
2170.92, 0.277800
2171.83, 0.277848
2172.74, 0.277800
2173.65, 0.277557
2174.56, 0.277411
2175.47, 0.277363
2176.39, 0.277411
2177.3, 0.277411
2178.22, 0.277363
2179.13, 0.277168
2180.05, 0.277023
2180.96, 0.276877
2181.88, 0.276926
2182.8, 0.276926
2183.72, 0.276926
2184.64, 0.276877
2185.56, 0.276683
2186.48, 0.276537
2187.41, 0.276440
2188.33, 0.276294
2189.25, 0.276294
2190.18, 0.276246
2191.1, 0.276246
2192.03, 0.276051
2192.96, 0.276003
2193.89, 0.275954
2194.82, 0.275906
2195.74, 0.275857
2196.68, 0.275857
2197.61, 0.275906
2198.54, 0.275857
2199.47, 0.275614
2200.4, 0.275663
2201.34, 0.275517
2202.28, 0.275420
2203.21, 0.275371
2204.15, 0.275420
2205.08, 0.275371
2206.02, 0.275274
2206.96, 0.275274
2207.9, 0.275274
2208.84, 0.275177
2209.78, 0.275080
2210.73, 0.275032
2211.67, 0.275080
2212.61, 0.274983
2213.56, 0.274837
2214.5, 0.274934
2215.45, 0.275080
2216.4, 0.274886
2217.35, 0.274740
2218.3, 0.274740
2219.24, 0.274740
2220.2, 0.274497
2221.15, 0.274497
2222.1, 0.274400
2223.05, 0.274497
2224.0, 0.274449
2224.96, 0.274352
2225.91, 0.274254
2226.87, 0.274303
2227.83, 0.274206
2228.79, 0.274206
2229.74, 0.274012
2230.7, 0.273914
2231.66, 0.273720
2232.63, 0.273477
2233.59, 0.273283
2234.55, 0.273283
2235.51, 0.273089
2236.48, 0.272846
2237.44, 0.272700
2238.41, 0.272506
2239.38, 0.272069
2240.34, 0.271486
2241.31, 0.270952
2242.28, 0.270612
2243.25, 0.270175
2244.22, 0.269543
2245.19, 0.268718
2246.17, 0.268038
2247.14, 0.267261
2248.12, 0.266435
2249.09, 0.265755
2250.07, 0.265415
2251.04, 0.265027
2252.02, 0.264784
2253.0, 0.264638
2253.98, 0.264493
2254.96, 0.264298
2255.94, 0.264395
2256.92, 0.264590
2257.91, 0.264881
2258.89, 0.265075
2259.88, 0.265415
2260.86, 0.265610
2261.85, 0.265901
2262.83, 0.266047
2263.82, 0.266338
2264.81, 0.266581
2265.8, 0.266727
2266.79, 0.266727
2267.78, 0.266678
2268.78, 0.266727
2269.77, 0.266678
2270.76, 0.266727
2271.76, 0.266485
2272.75, 0.266292
2273.75, 0.266196
2274.75, 0.265714
2275.75, 0.265376
2276.75, 0.264942
2277.75, 0.264266
2278.75, 0.263687
2279.75, 0.263253
2280.75, 0.262674
2281.76, 0.261999
2282.76, 0.261082
2283.77, 0.260118
2284.77, 0.259201
2285.78, 0.258284
2286.79, 0.257320
2287.8, 0.256306
2288.81, 0.255293
2289.82, 0.254087
2290.83, 0.252978
2291.84, 0.252109
2292.86, 0.251193
2293.87, 0.249939
2294.89, 0.248781
2295.91, 0.248009
2296.92, 0.246996
2297.94, 0.245790
2298.96, 0.244873
2299.98, 0.243957
2301.0, 0.242944
2302.02, 0.242220
2303.04, 0.241786
2304.07, 0.241255
2305.09, 0.240483
2306.12, 0.239663
2307.15, 0.239277
2308.17, 0.238843
2309.2, 0.238312
2310.23, 0.237396
2311.26, 0.236672
2312.29, 0.236045
2313.32, 0.235466
2314.35, 0.234743
2315.39, 0.234357
2316.42, 0.233730
2317.46, 0.232958
2318.5, 0.232572
2319.53, 0.232331
2320.57, 0.232089
2321.61, 0.231896
2322.65, 0.231510
2323.69, 0.231317
2324.73, 0.231559
2325.78, 0.231752
2326.82, 0.231462
2327.86, 0.231510
2328.91, 0.231752
2329.96, 0.231945
2331.01, 0.232089
2332.05, 0.232186
2333.1, 0.232620
2334.15, 0.233102
2335.21, 0.233585
2336.26, 0.234115
2337.31, 0.234791
2338.36, 0.235370
2339.42, 0.235900
2340.48, 0.236479
2341.53, 0.237396
2342.59, 0.238264
2343.65, 0.238843
2344.71, 0.239374
2345.77, 0.240097
2346.83, 0.241159
2347.9, 0.241979
2348.96, 0.242702
2350.02, 0.243571
2351.09, 0.244391
2352.16, 0.244729
2353.23, 0.245356
2354.29, 0.246272
2355.36, 0.247092
2356.43, 0.247720
2357.51, 0.248250
2358.58, 0.248636
2359.65, 0.248877
2360.73, 0.249167
2361.8, 0.249408
2362.88, 0.249504
2363.96, 0.249504
2365.03, 0.249649
2366.11, 0.249649
2367.19, 0.249504
2368.27, 0.249504
2369.36, 0.249167
2370.44, 0.248684
2371.53, 0.248202
2372.61, 0.247816
2373.7, 0.247141
2374.78, 0.246465
2375.87, 0.246079
2376.96, 0.245742
2378.05, 0.245163
2379.14, 0.244391
2380.24, 0.243619
2381.33, 0.243088
2382.42, 0.242751
2383.52, 0.242316
2384.61, 0.241738
2385.71, 0.241159
2386.81, 0.241062
2387.91, 0.241159
2389.01, 0.241062
2390.11, 0.241062
2391.22, 0.241207
2392.32, 0.241352
2393.42, 0.241545
2394.53, 0.241786
2395.64, 0.242124
2396.74, 0.242702
2397.85, 0.243378
2398.96, 0.243764
2400.07, 0.244246
2401.18, 0.244825
2402.3, 0.245645
2403.41, 0.246562
2404.52, 0.247044
2405.64, 0.247623
2406.76, 0.248443
2407.88, 0.249167
2408.99, 0.249697
2410.11, 0.250276
2411.23, 0.251241
2412.36, 0.252158
2413.48, 0.252833
2414.6, 0.253557
2415.73, 0.254425
2416.85, 0.255197
2417.98, 0.255583
2419.11, 0.256065
2420.24, 0.256741
2421.37, 0.257513
2422.5, 0.258043
2423.64, 0.258429
2424.77, 0.259104
2425.9, 0.259732
2427.04, 0.260021
2428.18, 0.260359
2429.31, 0.260938
2430.45, 0.261275
2431.59, 0.261468
2432.73, 0.262047
2433.88, 0.262626
2435.02, 0.263157
2436.16, 0.263398
2437.31, 0.263591
2438.45, 0.263784
2439.6, 0.264073
2440.75, 0.264411
2441.9, 0.264604
2443.05, 0.264797
2444.2, 0.265086
2445.35, 0.265472
2446.51, 0.265762
2447.67, 0.266003
2448.82, 0.266244
2449.98, 0.266389
2451.14, 0.266582
2452.3, 0.266775
2453.46, 0.266823
2454.62, 0.267113
2455.78, 0.267113
2456.94, 0.267113
2458.11, 0.267257
2459.28, 0.267498
2460.44, 0.267595
2461.61, 0.267740
2462.78, 0.267884
2463.95, 0.267884
2465.12, 0.268029
2466.3, 0.268222
2467.47, 0.268319
2468.65, 0.268415
2469.82, 0.268463
2471.0, 0.268656
2472.18, 0.268656
2473.36, 0.268705
2474.54, 0.268753
2475.72, 0.269090
2476.9, 0.269235
2478.08, 0.269235
2479.27, 0.269283
2480.46, 0.269525
2481.64, 0.269862
2482.83, 0.269862
2484.02, 0.269718
2485.21, 0.269862
2486.4, 0.270104
2487.6, 0.270393
2488.79, 0.270538
2489.99, 0.270489
2491.18, 0.270634
2492.38, 0.271020
2493.58, 0.270972
2494.78, 0.271068
2495.98, 0.271310
2497.18, 0.271551
2498.39, 0.271888
2499.59, 0.272033
2500.8, 0.272178
2502.01, 0.272419
2503.21, 0.272660
2504.42, 0.272902
2505.63, 0.273046
2506.84, 0.273287
2508.06, 0.273480
2509.27, 0.273673
2510.49, 0.273963
2511.7, 0.274301
2512.92, 0.274397
2514.14, 0.274590
2515.36, 0.274928
2516.58, 0.275121
2517.8, 0.275410
2519.03, 0.275844
2520.25, 0.276182
2521.48, 0.276375
2522.7, 0.276713
2523.93, 0.276857
2525.16, 0.277147
2526.39, 0.277340
2527.62, 0.277436
2528.86, 0.277822
2530.09, 0.277967
2531.33, 0.277774
2532.56, 0.277967
2533.8, 0.278594
2535.04, 0.278449
2536.28, 0.278449
2537.52, 0.279366
2538.76, 0.279800
2540.01, 0.280041
2541.25, 0.279655
2542.5, 0.278787
2543.75, 0.279269
2544.99, 0.280379
2546.24, 0.280475
2547.49, 0.279607
2548.75, 0.279993
2550.0, 0.280282
2551.26, 0.279800
2552.51, 0.279366
2553.77, 0.280620
2555.03, 0.281778
2556.29, 0.282019
2557.55, 0.282212
2558.81, 0.281633
2560.08, 0.278932
2561.34, 0.276568
2562.61, 0.276713
2563.88, 0.277822
2565.14, 0.280282
2566.41, 0.282502
2567.68, 0.282067
2568.96, 0.279897
2570.23, 0.280620
2571.51, 0.281923
2572.78, 0.278980
2574.06, 0.279607
2575.34, 0.281151
2576.62, 0.280620
2577.9, 0.282502
2579.18, 0.283611
2580.47, 0.281971
2581.75, 0.281585
2583.04, 0.278835
2584.32, 0.279028
2585.61, 0.281778
2586.9, 0.281151
2588.2, 0.282309
2589.49, 0.283997
2590.78, 0.285396
2592.08, 0.284045
2593.37, 0.276134
2594.67, 0.269621
2595.97, 0.276616
2597.27, 0.284238
2598.57, 0.286843
2599.88, 0.286361
2601.18, 0.284817
2602.49, 0.283901
2603.79, 0.281730
2605.1, 0.278835
2606.41, 0.280717
2607.72, 0.283418
2609.03, 0.284190
2610.35, 0.285300
2611.66, 0.286120
2612.98, 0.285830
2614.3, 0.286071
2615.62, 0.282309
2616.94, 0.279897
2618.26, 0.282936
2619.58, 0.281247
2620.91, 0.282164
2622.23, 0.286892
2623.56, 0.288242
2624.89, 0.286650
2626.22, 0.282936
2627.55, 0.284721
2628.88, 0.283997
2630.21, 0.280475
2631.55, 0.284045
2632.89, 0.286313
2634.22, 0.286795
2635.56, 0.288966
2636.9, 0.289545
2638.25, 0.289497
2639.59, 0.289207
2640.93, 0.288725
2642.28, 0.288580
2643.63, 0.288773
2644.98, 0.287181
2646.33, 0.287181
2647.68, 0.288676
2649.03, 0.289400
2650.39, 0.288580
2651.74, 0.286264
2653.1, 0.286216
2654.46, 0.287181
2655.82, 0.287326
2657.18, 0.288676
2658.54, 0.287133
2659.9, 0.286361
2661.27, 0.287133
2662.64, 0.287229
2664.01, 0.282309
2665.38, 0.277967
2666.74, 0.278498
2668.12, 0.282067
2669.49, 0.277291
2670.87, 0.276423
2672.24, 0.283466
2673.62, 0.283901
2675.0, 0.278498
2676.38, 0.271165
2677.76, 0.266244
2679.15, 0.260166
2680.54, 0.254329
2681.92, 0.244536
2683.31, 0.232523
2684.7, 0.221380
2686.09, 0.210332
2687.48, 0.199816
2688.88, 0.189926
2690.27, 0.179940
2691.67, 0.169713
2693.07, 0.158907
2694.47, 0.151237
2695.87, 0.146606
2697.27, 0.143036
2698.67, 0.138983
2700.08, 0.134401
2701.49, 0.130155
2702.9, 0.127454
2704.31, 0.124366
2705.72, 0.121327
2707.13, 0.118288
2708.54, 0.114959
2709.96, 0.111968
2711.38, 0.110859
2712.8, 0.111389
2714.22, 0.110810
2715.64, 0.109653
2717.06, 0.108157
2718.49, 0.106131
2719.91, 0.102851
2721.34, 0.101982
2722.77, 0.101500
2724.2, 0.0998110
2725.63, 0.100825
2727.07, 0.102272
2728.5, 0.102851
2729.94, 0.102368
2731.38, 0.101596
2732.82, 0.100439
2734.26, 0.0992330
2735.7, 0.0998110
2737.15, 0.100197
2738.59, 0.0987020
2740.04, 0.0977370
2741.49, 0.0987500
2742.94, 0.100487
2744.39, 0.101693
2745.84, 0.102899
2747.3, 0.104105
2748.76, 0.105021
2750.21, 0.105456
2751.67, 0.105745
2753.14, 0.105649
2754.6, 0.104201
2756.06, 0.105456
2757.53, 0.108688
2759.0, 0.110521
2760.46, 0.111389
2761.94, 0.111534
2763.41, 0.113126
2764.88, 0.116165
2766.36, 0.119011
2767.83, 0.122388
2769.31, 0.126441
2770.79, 0.130686
2772.27, 0.135896
2773.76, 0.140479
2775.24, 0.143904
2776.73, 0.147377
2778.22, 0.151864
2779.71, 0.156977
2781.2, 0.162863
2782.69, 0.169568
2784.18, 0.175792
2785.68, 0.179989
2787.18, 0.184234
2788.68, 0.189975
2790.18, 0.195329
2791.68, 0.199768
2793.19, 0.203675
2794.69, 0.207390
2796.2, 0.211153
2797.71, 0.214867
2799.22, 0.218437
2800.73, 0.220801
2802.24, 0.221814
2803.76, 0.224612
2805.28, 0.228519
2806.8, 0.231317
2808.32, 0.233199
2809.84, 0.234743
2811.36, 0.235997
2812.89, 0.236720
2814.42, 0.236865
2815.94, 0.237589
2817.48, 0.238264
2819.01, 0.238361
2820.54, 0.238940
2822.08, 0.240049
2823.61, 0.240966
2825.15, 0.241738
2826.69, 0.242124
2828.23, 0.242751
2829.78, 0.243523
2831.32, 0.244150
2832.87, 0.244584
2834.42, 0.245114
2835.97, 0.245742
2837.52, 0.246417
2839.08, 0.247382
2840.63, 0.248250
2842.19, 0.248974
2843.75, 0.249553
2845.31, 0.249987
2846.87, 0.250469
2848.44, 0.250807
2850.0, 0.251338
2851.57, 0.252013
2853.14, 0.252061
2854.71, 0.252399
2856.28, 0.253219
2857.86, 0.253894
2859.43, 0.254039
2861.01, 0.254329
2862.59, 0.255052
2864.17, 0.255438
2865.76, 0.255535
2867.34, 0.255872
2868.93, 0.256499
2870.52, 0.256692
2872.11, 0.256885
2873.7, 0.257657
2875.29, 0.258333
2876.89, 0.258574
2878.49, 0.259056
2880.08, 0.259490
2881.69, 0.259876
2883.29, 0.260311
2884.89, 0.260745
2886.5, 0.261082
2888.11, 0.261420
2889.72, 0.261758
2891.33, 0.262288
2892.94, 0.262771
2894.56, 0.263157
2896.17, 0.263687
2897.79, 0.264170
2899.42, 0.264073
2901.04, 0.264266
2902.66, 0.264893
2904.29, 0.265328
2905.92, 0.265810
2907.55, 0.266099
2909.18, 0.266389
2910.81, 0.266823
2912.45, 0.267209
2914.08, 0.267547
2915.72, 0.267933
2917.36, 0.268270
2919.01, 0.268560
2920.65, 0.268753
2922.3, 0.268801
2923.94, 0.269187
2925.59, 0.269766
2927.25, 0.269959
2928.9, 0.270248
2930.56, 0.270489
2932.21, 0.270779
2933.87, 0.271261
2935.53, 0.271599
2937.2, 0.271888
2938.86, 0.272130
2940.53, 0.272419
2942.2, 0.272564
2943.87, 0.272853
2945.54, 0.273287
2947.22, 0.273577
2948.89, 0.273915
2950.57, 0.274542
2952.25, 0.274976
2953.93, 0.275217
2955.62, 0.275748
2957.3, 0.276182
2958.99, 0.276327
2960.68, 0.276761
2962.37, 0.277243
2964.07, 0.277484
2965.76, 0.277629
2967.46, 0.277967
2969.16, 0.278353
2970.86, 0.278642
2972.56, 0.278980
2974.27, 0.279221
2975.98, 0.279655
2977.69, 0.280138
2979.4, 0.280427
2981.11, 0.280620
2982.83, 0.280910
2984.54, 0.281199
2986.26, 0.281488
2987.98, 0.281971
2989.71, 0.282309
2991.43, 0.282743
2993.16, 0.283080
2994.89, 0.283273
2996.62, 0.283659
2998.35, 0.284094
3000.09, 0.284479
3001.83, 0.284817
3003.57, 0.285107
3005.31, 0.285541
3007.05, 0.285878
3008.79, 0.286120
3010.54, 0.286554
3012.29, 0.286988
3014.04, 0.287470
3015.8, 0.287760
3017.55, 0.287953
3019.31, 0.288291
3021.07, 0.288580
3022.83, 0.288966
3024.59, 0.289400
3026.36, 0.289690
3028.13, 0.290027
3029.9, 0.290413
3031.67, 0.290751
3033.44, 0.291089
3035.22, 0.291378
3037.0, 0.291716
3038.78, 0.292102
3040.56, 0.292391
3042.34, 0.292632
3044.13, 0.292970
3045.92, 0.293211
3047.71, 0.293404
3049.5, 0.293790
3051.3, 0.294079
3053.09, 0.294272
3054.89, 0.294562
3056.69, 0.294851
3058.5, 0.295044
3060.3, 0.295189
3062.11, 0.295382
3063.92, 0.295671
3065.73, 0.295961
3067.55, 0.296202
3069.36, 0.296395
3071.18, 0.296540
3073.0, 0.296685
3074.82, 0.296829
3076.65, 0.296974
3078.48, 0.297070
3080.31, 0.297119
3082.14, 0.297360
3083.97, 0.297649
3085.8, 0.297794
3087.64, 0.297746
3089.48, 0.297746
3091.33, 0.297746
3093.17, 0.297891
3095.02, 0.298132
3096.87, 0.298373
3098.72, 0.298518
3100.57, 0.298662
3102.43, 0.298614
3104.28, 0.298614
3106.14, 0.298614
3108.01, 0.298711
3109.87, 0.298855
3111.74, 0.299000
3113.61, 0.299193
3115.48, 0.299338
3117.35, 0.299434
3119.23, 0.299483
3121.1, 0.299579
3122.98, 0.299627
3124.87, 0.299675
3126.75, 0.299675
3128.64, 0.299868
3130.53, 0.300110
3132.42, 0.300303
3134.31, 0.300399
3136.21, 0.300496
3138.11, 0.300640
3140.01, 0.300882
3141.91, 0.300978
3143.82, 0.301123
3145.73, 0.301267
3147.64, 0.301557
3149.55, 0.301653
3151.46, 0.301750
3153.38, 0.301943
3155.3, 0.302184
3157.22, 0.302377
3159.14, 0.302570
3161.07, 0.302763
3163.0, 0.302859
3164.93, 0.303052
3166.86, 0.303245
3168.8, 0.303390
3170.74, 0.303535
3172.68, 0.303631
3174.62, 0.303872
3176.56, 0.304017
3178.51, 0.304065
3180.46, 0.304210
3182.42, 0.304307
3184.37, 0.304500
3186.33, 0.304693
3188.29, 0.304837
3190.25, 0.304789
3192.21, 0.304934
3194.18, 0.305175
3196.15, 0.305320
3198.12, 0.305368
3200.09, 0.305464
3202.07, 0.305464
3204.05, 0.305513
3206.03, 0.305657
3208.02, 0.305657
3210.0, 0.305609
3211.99, 0.305657
3213.98, 0.305706
3215.98, 0.305754
3217.97, 0.305899
3219.97, 0.305995
3221.97, 0.305802
3223.98, 0.305754
3225.98, 0.305754
3227.99, 0.305706
3230.0, 0.305561
3232.02, 0.305754
3234.03, 0.305802
3236.05, 0.305706
3238.07, 0.305657
3240.1, 0.305754
3242.12, 0.305657
3244.15, 0.305513
3246.18, 0.305464
3248.22, 0.305464
3250.25, 0.305464
3252.29, 0.305609
3254.33, 0.305657
3256.38, 0.305609
3258.43, 0.305657
3260.47, 0.305657
3262.53, 0.305657
3264.58, 0.305657
3266.64, 0.305754
3268.7, 0.305947
3270.76, 0.305995
3272.82, 0.305995
3274.89, 0.306043
3276.96, 0.306140
3279.04, 0.306236
3281.11, 0.306285
3283.19, 0.306236
3285.27, 0.306236
3287.35, 0.306381
3289.44, 0.306429
3291.53, 0.306478
3293.62, 0.306381
3295.71, 0.306381
3297.81, 0.306429
3299.91, 0.306574
3302.01, 0.306670
3304.11, 0.306622
3306.22, 0.306719
3308.33, 0.306863
3310.44, 0.306815
3312.56, 0.306767
3314.68, 0.306719
3316.8, 0.306526
3318.92, 0.306429
3321.05, 0.306381
3323.18, 0.306381
3325.31, 0.306285
3327.44, 0.306043
3329.58, 0.305947
3331.72, 0.305995
3333.86, 0.305850
3336.01, 0.305706
3338.16, 0.305657
3340.31, 0.305561
3342.46, 0.305272
3344.61, 0.304837
3346.77, 0.304403
3348.94, 0.304162
3351.1, 0.303969
3353.27, 0.303776
3355.44, 0.303631
3357.61, 0.303535
3359.79, 0.303245
3361.97, 0.302811
3364.15, 0.302329
3366.33, 0.301798
3368.52, 0.301219
3370.71, 0.300737
3372.9, 0.300303
3375.1, 0.300061
3377.3, 0.299965
3379.5, 0.299965
3381.71, 0.300110
3383.91, 0.300254
3386.12, 0.300447
3388.34, 0.300689
3390.55, 0.300930
3392.77, 0.301171
3394.99, 0.301267
3397.22, 0.301219
3399.45, 0.300930
3401.68, 0.300496
3403.91, 0.300158
3406.15, 0.299820
3408.39, 0.299434
3410.63, 0.299048
3412.87, 0.298662
3415.12, 0.298614
3417.37, 0.298807
3419.63, 0.299048
3421.88, 0.299627
3424.14, 0.300399
3426.41, 0.301123
3428.67, 0.301895
3430.94, 0.302715
3433.21, 0.303294
3435.49, 0.303969
3437.77, 0.304548
3440.05, 0.304982
3442.33, 0.305416
3444.62, 0.305850
3446.91, 0.306285
3449.2, 0.306622
3451.5, 0.306912
3453.8, 0.307298
3456.1, 0.307684
3458.41, 0.307877
3460.72, 0.308166
3463.03, 0.308455
3465.34, 0.308504
3467.66, 0.308407
3469.98, 0.308118
3472.31, 0.307828
3474.63, 0.307587
3476.96, 0.307394
3479.3, 0.307249
3481.64, 0.307249
3483.97, 0.307298
3486.32, 0.307346
3488.66, 0.307442
3491.01, 0.307442
3493.36, 0.307346
3495.72, 0.307201
3498.08, 0.307056
3500.44, 0.307008
3502.81, 0.307201
3505.18, 0.307684
3507.55, 0.308166
3509.92, 0.308697
3512.3, 0.309276
3514.68, 0.309951
3517.06, 0.310530
3519.45, 0.311060
3521.84, 0.311591
3524.24, 0.312170
3526.64, 0.312652
3529.04, 0.312990
3531.44, 0.313183
3533.85, 0.313376
3536.26, 0.313521
3538.67, 0.313617
3541.09, 0.313810
3543.51, 0.313858
3545.93, 0.313858
3548.36, 0.313858
3550.79, 0.313907
3553.22, 0.313907
3555.66, 0.313810
3558.1, 0.313762
3560.54, 0.313858
3562.99, 0.313858
3565.44, 0.313858
3567.9, 0.313810
3570.35, 0.313714
3572.81, 0.313617
3575.28, 0.313617
3577.75, 0.313714
3580.22, 0.313665
3582.69, 0.313617
3585.17, 0.313569
3587.65, 0.313521
3590.14, 0.313473
3592.62, 0.313521
3595.11, 0.313473
3597.61, 0.313376
3600.11, 0.313280
3602.61, 0.313183
3605.11, 0.313231
3607.62, 0.313280
3610.14, 0.313328
3612.65, 0.313183
3615.17, 0.312990
3617.69, 0.312894
3620.22, 0.312797
3622.75, 0.312701
3625.28, 0.312556
3627.82, 0.312508
3630.36, 0.312459
3632.9, 0.312363
3635.45, 0.312218
3638.0, 0.312170
3640.56, 0.312025
3643.12, 0.311929
3645.68, 0.311929
3648.24, 0.311784
3650.81, 0.311543
3653.39, 0.311495
3655.96, 0.311398
3658.54, 0.311253
3661.13, 0.311109
3663.71, 0.310964
3666.3, 0.310819
3668.9, 0.310723
3671.5, 0.310626
3674.1, 0.310530
3676.7, 0.310482
3679.31, 0.310385
3681.93, 0.310144
3684.54, 0.309999
3687.17, 0.309999
3689.79, 0.309951
3692.42, 0.309806
3695.05, 0.309661
3697.69, 0.309517
3700.32, 0.309517
3702.97, 0.309468
3705.61, 0.309324
3708.27, 0.309276
3710.92, 0.309276
3713.58, 0.309131
3716.24, 0.308986
3718.91, 0.308938
3721.58, 0.308986
3724.25, 0.308938
3726.93, 0.308841
3729.61, 0.308697
3732.29, 0.308455
3734.98, 0.308359
3737.67, 0.308311
3740.37, 0.308311
3743.07, 0.308262
3745.78, 0.308118
3748.49, 0.308069
3751.2, 0.308021
3753.91, 0.307925
3756.63, 0.307828
3759.36, 0.307780
3762.09, 0.307684
3764.82, 0.307491
3767.55, 0.307442
3770.29, 0.307346
3773.04, 0.307201
3775.78, 0.307008
3778.54, 0.306912
3781.29, 0.306815
3784.05, 0.306670
3786.82, 0.306622
3789.59, 0.306429
3792.36, 0.306236
3795.13, 0.306043
3797.92, 0.305850
3800.7, 0.305706
3803.49, 0.305416
3806.28, 0.305079
3809.08, 0.304886
3811.88, 0.304741
3814.68, 0.304451
3817.49, 0.304258
3820.31, 0.304017
3823.12, 0.303824
3825.94, 0.303583
3828.77, 0.303342
3831.6, 0.303004
3834.43, 0.302763
3837.27, 0.302618
3840.11, 0.302377
3842.96, 0.302232
3845.81, 0.302039
3848.67, 0.301798
3851.53, 0.301557
3854.39, 0.301364
3857.26, 0.301219
3860.13, 0.301026
3863.01, 0.300882
3865.89, 0.300737
3868.77, 0.300447
3871.66, 0.300206
3874.55, 0.300013
3877.45, 0.299868
3880.35, 0.299675
3883.26, 0.299483
3886.17, 0.299290
3889.09, 0.299145
3892.01, 0.298855
3894.93, 0.298711
3897.86, 0.298566
3900.79, 0.298421
3903.73, 0.298276
3906.67, 0.298035
3909.62, 0.297746
3912.57, 0.297505
3915.52, 0.297215
3918.48, 0.296926
3921.45, 0.296685
3924.42, 0.296540
3927.39, 0.296347
3930.37, 0.296106
3933.35, 0.295913
3936.34, 0.295671
3939.33, 0.295430
3942.32, 0.294996
3945.32, 0.294610
3948.33, 0.294224
3951.34, 0.293790
3954.35, 0.293501
3957.37, 0.293066
3960.39, 0.292632
3963.42, 0.292391
3966.45, 0.292102
3969.49, 0.291812
3972.53, 0.291571
3975.58, 0.291378
3978.63, 0.291137
3981.68, 0.290944
3984.75, 0.290847
3987.81, 0.290944
3990.88, 0.290992
3993.95, 0.291040
3997.03, 0.291137
4000.12, 0.291185
4003.21, 0.291281
4006.3, 0.291426
4009.4, 0.291523
4012.5, 0.291571
4015.61, 0.291619
4018.72, 0.291667
4021.84, 0.291619
4024.96, 0.291474
4028.09, 0.291330
4031.22, 0.291281
4034.36, 0.291137
4037.5, 0.290992
4040.65, 0.290944
4043.8, 0.290944
4046.96, 0.290847
4050.12, 0.290606
4053.29, 0.290413
4056.46, 0.290220
4059.64, 0.289979
4062.82, 0.289786
4066.0, 0.289545
4069.19, 0.289400
4072.39, 0.289207
4075.59, 0.289014
4078.8, 0.288869
4082.01, 0.288676
4085.23, 0.288435
4088.45, 0.288242
4091.68, 0.288001
4094.91, 0.287712
4098.15, 0.287519
4101.39, 0.287326
4104.63, 0.287181
4107.89, 0.286988
4111.14, 0.286747
4114.41, 0.286506
4117.67, 0.286216
4120.95, 0.286023
4124.23, 0.285878
4127.51, 0.285637
4130.8, 0.285396
4134.09, 0.285155
4137.39, 0.285010
4140.7, 0.284817
4144.01, 0.284624
4147.32, 0.284335
4150.64, 0.284094
4153.97, 0.283756
4157.3, 0.283466
4160.64, 0.283225
4163.98, 0.283032
4167.33, 0.282839
4170.68, 0.282646
4174.04, 0.282453
4177.4, 0.282260
4180.77, 0.282164
4184.14, 0.281971
4187.52, 0.281778
4190.91, 0.281488
4194.3, 0.281199
4197.69, 0.280861
4201.1, 0.280379
4204.5, 0.279848
4207.92, 0.279221
4211.34, 0.278353
4214.76, 0.277388
4218.19, 0.276471
4221.62, 0.275651
4225.06, 0.274879
4228.51, 0.274204
4231.96, 0.273673
4235.42, 0.273480
4238.88, 0.273529
4242.35, 0.273770
4245.83, 0.274301
4249.31, 0.275072
4252.79, 0.275844
4256.28, 0.276278
4259.78, 0.275603
4263.29, 0.274493
4266.79, 0.273625
4270.31, 0.272950
4273.83, 0.272612
4277.35, 0.272419
4280.89, 0.272323
4284.42, 0.272178
4287.97, 0.271985
4291.52, 0.271888
4295.07, 0.272033
4298.63, 0.272130
4302.2, 0.272226
4305.78, 0.272323
4309.35, 0.272419
4312.94, 0.272516
4316.53, 0.272564
4320.13, 0.272660
4323.73, 0.272660
4327.34, 0.272660
4330.96, 0.272516
4334.58, 0.272371
4338.21, 0.272274
4341.84, 0.272081
4345.48, 0.271937
4349.12, 0.271792
4352.77, 0.271551
4356.43, 0.271358
4360.1, 0.271213
4363.76, 0.271068
4367.44, 0.270827
4371.12, 0.270489
4374.81, 0.270248
4378.51, 0.270007
4382.21, 0.269718
4385.92, 0.269332
4389.63, 0.269042
4393.35, 0.268849
4397.08, 0.268463
4400.81, 0.268029
4404.55, 0.267643
4408.29, 0.267306
4412.04, 0.266920
4415.8, 0.266534
4419.57, 0.266051
4423.34, 0.265665
4427.12, 0.265279
4430.9, 0.264797
4434.69, 0.264363
4438.49, 0.264025
4442.29, 0.263543
4446.1, 0.263012
4449.92, 0.262481
4453.74, 0.262047
4457.57, 0.261565
4461.41, 0.261082
4465.25, 0.260600
4469.1, 0.260166
4472.95, 0.259635
4476.82, 0.259104
4480.69, 0.258622
4484.56, 0.258140
4488.44, 0.257609
4492.33, 0.257175
4496.23, 0.256692
4500.13, 0.256162
4504.04, 0.255679
4507.96, 0.255245
4511.88, 0.254666
4515.81, 0.254087
4519.75, 0.253460
4523.69, 0.252833
4527.65, 0.252206
4531.6, 0.251675
4535.57, 0.250952
4539.54, 0.250132
4543.52, 0.249311
4547.5, 0.248540
4551.5, 0.247720
4555.5, 0.246948
4559.5, 0.246079
4563.52, 0.245211
4567.54, 0.244294
4571.56, 0.243330
4575.6, 0.242413
4579.64, 0.241545
4583.69, 0.240532
4587.75, 0.239470
4591.81, 0.238602
4595.88, 0.237685
4599.96, 0.236576
4604.04, 0.235514
4608.14, 0.234501
4612.24, 0.233488
4616.34, 0.232379
4620.46, 0.231269
4624.58, 0.230208
4628.71, 0.228954
4632.84, 0.227892
4636.99, 0.226735
4641.14, 0.225480
4645.3, 0.224226
4649.47, 0.223068
4653.64, 0.221862
4657.82, 0.220656
4662.01, 0.219305
4666.21, 0.218051
4670.41, 0.216942
4674.62, 0.215735
4678.84, 0.214529
4683.07, 0.213275
4687.3, 0.212069
4691.54, 0.210863
4695.79, 0.209609
4700.05, 0.208306
4704.31, 0.207052
4708.59, 0.205798
4712.87, 0.204495
4717.15, 0.203241
4721.45, 0.201890
4725.76, 0.200636
4730.07, 0.199333
4734.39, 0.198079
4738.72, 0.196728
4743.05, 0.195522
4747.39, 0.194316
4751.75, 0.193014
4756.1, 0.191808
4760.47, 0.190602
4764.85, 0.189396
4769.23, 0.188190
4773.62, 0.187032
4778.02, 0.185778
4782.43, 0.184668
4786.85, 0.183510
4791.27, 0.182401
4795.7, 0.181195
4800.14, 0.180037
4804.59, 0.178879
4809.05, 0.177673
4813.51, 0.176515
4817.99, 0.175309
4822.47, 0.174151
4826.96, 0.172945
4831.46, 0.171836
4835.96, 0.170678
4840.48, 0.169424
4845.0, 0.168266
4849.54, 0.167156
4854.08, 0.166047
4858.63, 0.164889
4863.18, 0.163780
4867.75, 0.162573
4872.33, 0.161416
4876.91, 0.160306
4881.5, 0.159197
4886.1, 0.158039
4890.71, 0.156833
4895.33, 0.155723
4899.96, 0.154614
4904.59, 0.153601
4909.24, 0.152539
4913.89, 0.151333
4918.55, 0.150320
4923.22, 0.149355
4927.9, 0.148342
4932.59, 0.147329
4937.29, 0.146364
4942.0, 0.145448
4946.71, 0.144579
4951.44, 0.143759
4956.17, 0.142891
4960.91, 0.142071
4965.67, 0.141347
4970.43, 0.140672
4975.2, 0.139997
4979.98, 0.139369
4984.76, 0.138742
4989.56, 0.138163
4994.37, 0.137633
4999.18, 0.137150
5004.01, 0.136620
5008.84, 0.136089
5013.69, 0.135510
5018.54, 0.134786
5023.4, 0.134401
5028.28, 0.134063
5033.16, 0.133677
5038.05, 0.133291
5042.95, 0.132809
5047.86, 0.132326
5052.78, 0.131892
5057.71, 0.131458
5062.65, 0.130975
5067.6, 0.130638
5072.56, 0.130300
5077.53, 0.129818
5082.5, 0.129335
5087.49, 0.129094
5092.49, 0.128805
5097.5, 0.128563
5102.51, 0.128274
5107.54, 0.128033
5112.58, 0.127743
5117.62, 0.127454
5122.68, 0.127213
5127.75, 0.126971
5132.82, 0.126778
5137.91, 0.126537
5143.01, 0.126055
5148.12, 0.125621
5153.23, 0.125910
5158.36, 0.125958
5163.5, 0.125765
5168.65, 0.125717
5173.81, 0.125572
5178.98, 0.125572
5184.15, 0.125524
5189.34, 0.125379
5194.54, 0.125138
5199.75, 0.124800
5204.98, 0.124752
5210.21, 0.124270
5215.45, 0.124077
5220.7, 0.124559
5225.96, 0.124463
5231.23, 0.124173
5236.52, 0.123932
5241.81, 0.123884
5247.12, 0.123739
5252.44, 0.123450
5257.76, 0.123160
5263.1, 0.122919
5268.45, 0.122678
5273.81, 0.122388
5279.18, 0.122099
5284.56, 0.121906
5289.95, 0.121327
5295.36, 0.121182
5300.77, 0.121231
5306.2, 0.121038
5311.63, 0.120845
5317.08, 0.120603
5322.54, 0.120459
5328.01, 0.120266
5333.49, 0.120073
5338.98, 0.119880
5344.49, 0.119204
5350.0, 0.118433
5355.53, 0.118867
5361.07, 0.119397
5366.62, 0.119590
5372.18, 0.119542
5377.75, 0.119542
5383.34, 0.119494
5388.93, 0.119397
5394.54, 0.119301
5400.16, 0.119349
5405.79, 0.119108
5411.44, 0.118722
5417.09, 0.117564
5422.76, 0.116648
5428.43, 0.117709
5434.12, 0.118095
5439.83, 0.117757
5445.54, 0.117420
5451.26, 0.117130
5457.0, 0.116406
5462.75, 0.115249
5468.52, 0.115200
5474.29, 0.114959
5480.08, 0.114429
5485.88, 0.114670
5491.69, 0.114477
5497.51, 0.114091
5503.35, 0.113657
5509.2, 0.113367
5515.06, 0.112740
5520.93, 0.112016
5526.82, 0.111582
5532.71, 0.111389
5538.63, 0.110810
5544.55, 0.109846
5550.49, 0.108640
5556.44, 0.107964
5562.4, 0.107530
5568.37, 0.106758
5574.36, 0.104973
5580.36, 0.103815
5586.37, 0.104153
5592.4, 0.103864
5598.44, 0.102706
5604.49, 0.101789
5610.56, 0.100969
5616.63, 0.0998600
5622.73, 0.0990400
5628.83, 0.0979300
5634.95, 0.0960490
5641.08, 0.0938780
5647.23, 0.0935880
5653.39, 0.0932020
5659.56, 0.0926720
5665.74, 0.0922380
5671.94, 0.0906460
5678.15, 0.0897290
5684.38, 0.0892950
5690.62, 0.0882820
5696.87, 0.0878480
5703.14, 0.0868830
5709.42, 0.0852910
5715.72, 0.0849050
5722.03, 0.0849530
5728.35, 0.0848080
5734.69, 0.0841810
5741.03, 0.0834090
5747.4, 0.0825890
5753.78, 0.0827820
5760.17, 0.0812380
5766.58, 0.0794050
5773.0, 0.0807560
5779.44, 0.0815280
5785.88, 0.0815280
5792.35, 0.0814800
5798.83, 0.0810940
5805.32, 0.0808530
5811.83, 0.0799360
5818.35, 0.0778620
5824.89, 0.0773790
5831.45, 0.0783920
5838.01, 0.0791160
5844.59, 0.0792610
5851.19, 0.0788260
5857.8, 0.0780060
5864.43, 0.0773790
5871.07, 0.0770900
5877.73, 0.0744850
5884.4, 0.0742430
5891.09, 0.0748710
5897.79, 0.0745330
5904.5, 0.0761250
5911.23, 0.0763180
5917.98, 0.0757390
5924.75, 0.0751120
5931.53, 0.0729890
5938.32, 0.0718800
5945.13, 0.0736160
5951.96, 0.0742430
5958.8, 0.0739540
5965.65, 0.0726030
5972.53, 0.0724590
5979.42, 0.0727000
5986.32, 0.0716380
5993.24, 0.0715420
6000.18, 0.0723140
6007.13, 0.0718310
6014.1, 0.0711080
6021.08, 0.0714450
6028.09, 0.0715900
6035.1, 0.0709630
6042.14, 0.0682620
6049.19, 0.0659940
6056.25, 0.0684060
6063.34, 0.0693230
6070.44, 0.0680690
6077.55, 0.0682620
6084.69, 0.0692750
6091.84, 0.0692750
6099.0, 0.0688400
6106.19, 0.0675380
6113.39, 0.0661870
6120.61, 0.0672480
6127.84, 0.0680690
6135.09, 0.0676340
6142.36, 0.0671040
6149.65, 0.0668140
6156.95, 0.0661870
6164.27, 0.0662840
6171.61, 0.0665730
6178.97, 0.0654150
6186.34, 0.0645470
6193.73, 0.0656570
6201.14, 0.0659940
6208.57, 0.0657530
6216.01, 0.0655600
6223.47, 0.0655600
6230.95, 0.0655600
6238.45, 0.0654640
6245.97, 0.0654640
6253.5, 0.0655120
6261.06, 0.0654640
6268.63, 0.0654640
6276.21, 0.0655600
6283.82, 0.0656570
6291.45, 0.0657530
6299.1, 0.0658980
6306.76, 0.0660910
6314.44, 0.0662840
6322.14, 0.0664770
6329.86, 0.0665730
6337.6, 0.0656570
6345.35, 0.0651740
6353.13, 0.0668140
6360.92, 0.0672970
6368.74, 0.0667660
6376.57, 0.0675380
6384.43, 0.0682620
6392.3, 0.0685510
6400.19, 0.0683100
6408.1, 0.0658980
6416.03, 0.0653190
6423.98, 0.0679720
6431.95, 0.0693230
6439.94, 0.0702880
6447.95, 0.0708670
6455.98, 0.0713490
6464.03, 0.0716870
6472.1, 0.0712530
6480.19, 0.0707220
6488.31, 0.0696120
6496.44, 0.0702390
6504.59, 0.0730370
6512.76, 0.0739060
6520.95, 0.0737610
6529.16, 0.0750640
6537.4, 0.0757390
6545.65, 0.0756420
6553.92, 0.0756910
6562.22, 0.0757390
6570.54, 0.0749670
6578.88, 0.0760280
6587.23, 0.0770410
6595.61, 0.0775720
6604.02, 0.0784890
6612.44, 0.0786820
6620.89, 0.0785370
6629.35, 0.0768970
6637.84, 0.0758840
6646.35, 0.0782960
6654.88, 0.0801770
6663.44, 0.0800320
6672.01, 0.0793090
6680.61, 0.0788260
6689.23, 0.0797910
6697.88, 0.0803220
6706.54, 0.0794540
6715.23, 0.0792120
6723.94, 0.0797430
6732.67, 0.0802740
6741.42, 0.0804180
6750.2, 0.0802250
6759.0, 0.0800810
6767.82, 0.0794050
6776.67, 0.0784890
6785.54, 0.0772830
6794.44, 0.0773310
6803.35, 0.0784890
6812.29, 0.0784400
6821.26, 0.0773790
6830.24, 0.0770900
6839.25, 0.0773790
6848.29, 0.0763180
6857.35, 0.0739060
6866.43, 0.0732300
6875.54, 0.0750640
6884.67, 0.0754010
6893.82, 0.0749670
6903.0, 0.0741950
6912.2, 0.0740020
6921.43, 0.0738580
6930.69, 0.0734720
6939.96, 0.0730370
6949.27, 0.0720240
6958.59, 0.0703840
6967.95, 0.0707220
6977.33, 0.0710110
6986.73, 0.0704320
6996.16, 0.0698540
7005.61, 0.0696120
7015.09, 0.0689850
7024.6, 0.0683580
7034.13, 0.0673930
7043.69, 0.0658490
7053.27, 0.0658010
7062.88, 0.0661390
7072.52, 0.0658010
7082.18, 0.0652710
7091.87, 0.0646920
7101.58, 0.0641130
7111.32, 0.0632930
7121.09, 0.0626170
7130.88, 0.0620870
7140.71, 0.0611700
7150.56, 0.0603020
7160.43, 0.0596750
7170.33, 0.0589990
7180.27, 0.0588060
7190.23, 0.0583720
7200.21, 0.0575520
7210.23, 0.0568770
7220.27, 0.0566350
7230.34, 0.0562010
7240.44, 0.0556220
7250.56, 0.0549470
7260.72, 0.0543200
7270.9, 0.0535960
7281.12, 0.0530660
7291.36, 0.0527280
7301.63, 0.0521490
7311.93, 0.0515700
7322.25, 0.0510390
7332.61, 0.0502190
7343.0, 0.0496400
7353.41, 0.0492060
7363.86, 0.0488200
7374.33, 0.0482410
7384.83, 0.0477110
7395.37, 0.0471800
7405.93, 0.0466010
7416.53, 0.0459740
7427.15, 0.0454920
7437.81, 0.0449610
7448.5, 0.0443820
7459.22, 0.0437550
7469.96, 0.0433210
7480.74, 0.0429350
7491.55, 0.0425490
7502.39, 0.0421150
7513.27, 0.0416810
7524.17, 0.0411500
7535.11, 0.0406670
7546.08, 0.0401850
7557.08, 0.0397030
7568.11, 0.0392680
7579.17, 0.0389310
7590.27, 0.0385450
7601.4, 0.0381110
7612.56, 0.0375800
7623.76, 0.0371940
7634.98, 0.0368080
7646.24, 0.0364220
7657.54, 0.0359880
7668.87, 0.0355540
7680.23, 0.0351680
7691.62, 0.0348300
7703.05, 0.0343960
7714.51, 0.0339620
7726.01, 0.0334800
7737.54, 0.0330450
7749.11, 0.0326590
7760.71, 0.0323220
7772.35, 0.0318880
7784.02, 0.0314530
7795.72, 0.0310190
7807.46, 0.0306330
7819.23, 0.0301990
7831.04, 0.0297170
7842.89, 0.0292830
7854.77, 0.0288970
7866.69, 0.0284140
7878.65, 0.0280280
7890.64, 0.0275940
7902.67, 0.0270630
7914.74, 0.0265810
7926.84, 0.0260500
7938.98, 0.0255200
7951.16, 0.0250370
7963.37, 0.0246030
7975.62, 0.0241210
7987.91, 0.0236870
8000.24, 0.0232040
8012.6, 0.0227220
8025.01, 0.0223360
8037.45, 0.0217570
8049.93, 0.0211780
8062.45, 0.0205510
8075.01, 0.0200680
8087.61, 0.0194900
8100.24, 0.0190070
8112.91, 0.0184760
8125.63, 0.0179940
8138.39, 0.0175120
8151.18, 0.0169810
8164.02, 0.0164020
8176.9, 0.0159200
8189.81, 0.0154370
8202.77, 0.0148580
8215.77, 0.0142790
8228.82, 0.0137490
8241.9, 0.0133150
8255.02, 0.0128320
8268.19, 0.0123020
8281.39, 0.0118190
8294.65, 0.0112400
8307.94, 0.0106610
8321.28, 0.0101790
8334.66, 0.00979300
8348.08, 0.00935900
8361.54, 0.00906900
8375.05, 0.00868300
8388.6, 0.00820100
8402.2, 0.00781500
8415.84, 0.00752600
8429.52, 0.00718800
8443.25, 0.00689900
8457.02, 0.00670600
8470.84, 0.00660900
8484.7, 0.00641600
8498.61, 0.00636800
8512.57, 0.00651300
8526.57, 0.00665700
8540.62, 0.00694700
8554.71, 0.00762200
8568.85, 0.00849000
8583.04, 0.00969700
8597.27, 0.0113370
8611.55, 0.0134590
8625.88, 0.0161130
8640.26, 0.0193930
8654.68, 0.0233490
8669.16, 0.0279320
8683.68, 0.0328520
8698.25, 0.0381110
8712.87, 0.0433690
8727.53, 0.0480970
8742.25, 0.0520520
8757.02, 0.0550920
8771.83, 0.0573110
8786.7, 0.0587580
8801.62, 0.0596260
8816.59, 0.0599640
8831.61, 0.0599160
8846.68, 0.0597230
8861.8, 0.0596260
8876.97, 0.0594820
8892.2, 0.0595780
8907.48, 0.0599160
8922.81, 0.0603500
8938.2, 0.0612180
8953.63, 0.0621350
8969.13, 0.0629070
8984.67, 0.0635820
9000.27, 0.0641130
9015.92, 0.0646430
9031.63, 0.0649330
9047.39, 0.0652710
9063.21, 0.0658010
9079.08, 0.0663800
9095.01, 0.0671040
9111.0, 0.0681170
9127.04, 0.0693710
9143.13, 0.0708670
9159.28, 0.0727000
9175.49, 0.0747740
9191.76, 0.0771860
9208.09, 0.0798880
9224.47, 0.0828790
9240.92, 0.0861590
9257.42, 0.0895360
9273.98, 0.0931060
9290.6, 0.0968200
9307.28, 0.100728
9324.02, 0.104684
9340.82, 0.108736
9357.68, 0.112885
9374.6, 0.116889
9391.58, 0.120845
9408.62, 0.124752
9425.73, 0.128515
9442.9, 0.132133
9460.13, 0.135462
9477.42, 0.138501
9494.78, 0.141203
9512.2, 0.143663
9529.69, 0.145737
9547.24, 0.147667
9564.86, 0.149114
9582.54, 0.150031
9600.28, 0.150706
9618.1, 0.150899
9635.97, 0.150610
9653.92, 0.150175
9671.93, 0.149355
9690.01, 0.148149
9708.16, 0.147040
9726.37, 0.146027
9744.65, 0.145110
9763.0, 0.144579
9781.43, 0.144290
9799.92, 0.144242
9818.48, 0.144531
9837.1, 0.145448
9855.8, 0.146750
9874.58, 0.148535
9893.42, 0.150851
9912.34, 0.153649
9931.33, 0.156833
9950.39, 0.160258
9969.52, 0.163828
9988.74, 0.167494
10008.0, 0.170919
10027.4, 0.173958
10046.8, 0.176515
10066.3, 0.178638
10085.9, 0.180664
10105.6, 0.182401
10125.3, 0.183655
10145.1, 0.184813
10165.0, 0.185729
10185.0, 0.186356
10205.0, 0.186646
10225.2, 0.186791
10245.4, 0.186549
10265.7, 0.185826
10286.0, 0.184957
10306.5, 0.183896
10327.0, 0.182497
10347.6, 0.180905
10368.3, 0.179361
10389.1, 0.177625
10409.9, 0.175743
10430.9, 0.173814
10451.9, 0.171691
10473.0, 0.169424
10494.2, 0.167108
10515.5, 0.164841
10536.9, 0.162429
10558.4, 0.159920
10579.9, 0.157170
10601.5, 0.154228
10623.3, 0.151092
10645.1, 0.147763
10667.0, 0.144290
10689.0, 0.140961
10711.1, 0.137584
10733.2, 0.134159
10755.5, 0.130831
10777.9, 0.127454
10800.3, 0.124125
10822.9, 0.120893
10845.5, 0.117998
10868.2, 0.115538
10891.1, 0.113126
10914.0, 0.110859
10937.0, 0.109026
10960.2, 0.107434
10983.4, 0.105842
11006.7, 0.104298
11030.1, 0.102899
11053.6, 0.101596
11077.3, 0.100149
11101.0, 0.0987980
11124.8, 0.0975920
11148.7, 0.0965310
11172.7, 0.0955180
11196.9, 0.0945050
11221.1, 0.0935400
11245.4, 0.0925270
11269.9, 0.0915140
11294.4, 0.0905490
11319.1, 0.0895840
11343.9, 0.0885710
11368.8, 0.0876060
11393.7, 0.0866900
11418.8, 0.0857730
11444.0, 0.0848080
11469.4, 0.0840360
11494.8, 0.0833610
11520.3, 0.0826860
11546.0, 0.0819140
11571.8, 0.0812870
11597.7, 0.0806600
11623.7, 0.0798390
11649.8, 0.0790680
11676.0, 0.0782480
11702.4, 0.0774270
11728.9, 0.0764140
11755.5, 0.0754010
11782.2, 0.0744360
11809.0, 0.0736650
11836.0, 0.0726520
11863.0, 0.0716380
11890.3, 0.0708670
11917.6, 0.0697570
11945.0, 0.0684550
11972.6, 0.0673930
12000.4, 0.0663800
12028.2, 0.0653190
12056.2, 0.0642580
12084.3, 0.0631480
12112.5, 0.0620870
12140.9, 0.0612670
12169.4, 0.0603500
12198.0, 0.0591920
12226.8, 0.0581310
12255.7, 0.0572140
12284.7, 0.0563940
12313.9, 0.0557190
12343.2, 0.0550430
12372.7, 0.0542230
12402.3, 0.0535480
12432.0, 0.0531620
12461.9, 0.0525830
12491.9, 0.0520040
12522.1, 0.0515700
12552.4, 0.0509430
12582.9, 0.0503160
12613.5, 0.0498330
12644.3, 0.0493990
12675.2, 0.0487240
12706.3, 0.0480480
12737.5, 0.0476620
12768.9, 0.0469870
12800.4, 0.0462630
12832.1, 0.0455880
12863.9, 0.0448640
12895.9, 0.0441890
12928.1, 0.0435140
12960.4, 0.0429350
12992.9, 0.0423560
13025.5, 0.0418250
13058.3, 0.0410050
13091.3, 0.0402330
13124.4, 0.0397510
13157.8, 0.0393170
13191.2, 0.0387380
13224.9, 0.0383520
13258.7, 0.0383040
13292.7, 0.0381590
13326.9, 0.0382550
13361.2, 0.0384000
13395.7, 0.0385450
13430.4, 0.0384480
13465.3, 0.0381590
13500.4, 0.0384970
13535.7, 0.0387860
13571.1, 0.0387380
13606.7, 0.0386410
13642.5, 0.0383520
13678.5, 0.0382070
13714.7, 0.0382550
13751.1, 0.0378690
13787.6, 0.0372420
13824.4, 0.0366630
13861.4, 0.0359400
13898.5, 0.0352640
13935.9, 0.0345890
13973.5, 0.0340580
14011.2, 0.0334310
14049.2, 0.0330940
14087.4, 0.0328040
14125.8, 0.0326110
14164.3, 0.0327080
14203.2, 0.0330940
14242.2, 0.0335760
14281.4, 0.0338170
14320.9, 0.0338170
14360.5, 0.0339620
14400.4, 0.0338170
14440.5, 0.0335760
14480.9, 0.0335280
14521.4, 0.0334310
14562.2, 0.0334800
14603.3, 0.0337210
14644.5, 0.0338170
14686.0, 0.0340100
14727.7, 0.0342510
14769.7, 0.0343480
14811.9, 0.0342510
14854.3, 0.0338650
14897.0, 0.0334310
14939.9, 0.0330940
14983.1, 0.0329010
15026.5, 0.0330450
15070.2, 0.0329490
15114.2, 0.0327080
15158.3, 0.0322730
15202.8, 0.0318880
15247.5, 0.0316950
15292.5, 0.0312600
15337.7, 0.0305850
15383.2, 0.0297650
15429.0, 0.0292830
15475.1, 0.0286550
15521.4, 0.0280760
15568.0, 0.0276420
15614.9, 0.0271600
15662.1, 0.0267260
15709.6, 0.0263880
15757.3, 0.0260020
15805.4, 0.0254710
15853.7, 0.0252780
15902.3, 0.0250860
15951.2, 0.0247960
16000.5, 0.0246030
16050.0, 0.0242650
16099.8, 0.0237350
16150.0, 0.0236380
16200.5, 0.0235420
16251.3, 0.0232520
16302.4, 0.0232040
16353.8, 0.0227220
16405.5, 0.0227220
16457.6, 0.0230110
16510.0, 0.0231080
16562.8, 0.0233970
16615.9, 0.0240720
16669.3, 0.0249890
16723.1, 0.0262920
16777.2, 0.0280280
16831.7, 0.0308740
16886.5, 0.0352160
16941.7, 0.0402330
16997.2, 0.0460710
17053.1, 0.0536440
17109.4, 0.0624240
17166.1, 0.0717830
17223.1, 0.0819140
17280.5, 0.0924790
17338.3, 0.102947
17396.5, 0.113319
17455.1, 0.123643
17514.0, 0.134015
17573.4, 0.144483
17633.2, 0.154710
17693.4, 0.164117
17754.0, 0.173380
17815.0, 0.182256
17876.4, 0.189975
17938.3, 0.196680
18000.5, 0.202373
18063.3, 0.206859
18126.4, 0.210525
18190.0, 0.213661
18254.1, 0.215687
18318.6, 0.217327
18383.5, 0.219595
18449.0, 0.221042
18514.9, 0.222103
18581.2, 0.223888
18648.0, 0.225480
18715.4, 0.226397
18783.2, 0.226638
18851.5, 0.226445
18920.3, 0.225721
18989.6, 0.224322
19059.4, 0.223406
19129.7, 0.222007
19200.6, 0.218678
19272.0, 0.215301
19343.9, 0.212069
19416.3, 0.209126
19489.3, 0.205315
19562.8, 0.201360
19637.0, 0.197693
19711.6, 0.194413
19786.8, 0.191374
19862.6, 0.187563
19939.0, 0.184861
20016.0, 0.184089
20093.6, 0.183655
20171.8, 0.184041
20250.6, 0.185343
20330.0, 0.187032
20410.0, 0.190119
20490.7, 0.193400
20572.0, 0.195233
20654.0, 0.197645
20736.6, 0.200636
20819.9, 0.202710
20903.8, 0.203289
20988.5, 0.204254
21073.8, 0.204640
21159.8, 0.203096
21246.5, 0.202952
21334.0, 0.203144
21422.1, 0.201263
21511.0, 0.198996
21600.7, 0.197114
21691.0, 0.196053
21782.1, 0.193448
21874.0, 0.191904
21966.7, 0.191856
22060.2, 0.189299
22154.5, 0.186742
22249.6, 0.183993
22345.5, 0.180471
22442.2, 0.179072
22539.8, 0.176805
22638.2, 0.174393
22737.5, 0.172125
22837.7, 0.169472
22938.7, 0.168169
23040.7, 0.167108
23143.5, 0.165130
23247.3, 0.162236
23352.1, 0.158618
23457.7, 0.156736
23564.4, 0.155193
23672.0, 0.153118
23780.5, 0.149355
23890.1, 0.146606
24000.7, 0.147570
24112.3, 0.147136
24225.0, 0.147619
24338.7, 0.148005
24453.5, 0.147763
24569.4, 0.147908
24686.4, 0.148149
24804.5, 0.146943
24923.8, 0.143422
