Database of Origin, USGS Spectral Database
Sample Description, See USGS database for additional info
Date Added,2016-08-10 02:48:34.791275

Data ID,USGS_gla02          
Sample ID, glauconite_hs313.8135
Mineral Name, glauconite
Material Class,Phyllosilicate

Wavelength
1592.67, 0.0996820
1593.16, 0.0996130
1593.65, 0.0997510
1594.14, 0.0995450
1594.63, 0.0997510
1595.12, 0.100577
1595.61, 0.100853
1596.11, 0.100577
1596.6, 0.100715
1597.09, 0.100990
1597.58, 0.101059
1598.08, 0.101059
1598.57, 0.101610
1599.06, 0.102161
1599.55, 0.101334
1600.05, 0.102229
1600.54, 0.102918
1601.04, 0.102987
1601.53, 0.102849
1602.03, 0.103124
1602.52, 0.103469
1603.02, 0.103331
1603.51, 0.103055
1604.01, 0.103262
1604.5, 0.103744
1605.0, 0.104432
1605.5, 0.104226
1606.0, 0.104019
1606.49, 0.104363
1606.99, 0.104983
1607.49, 0.105190
1607.99, 0.104845
1608.49, 0.104708
1608.99, 0.105052
1609.49, 0.105258
1609.99, 0.105121
1610.49, 0.105396
1610.99, 0.105671
1611.49, 0.105740
1611.99, 0.105671
1612.49, 0.105534
1612.99, 0.105809
1613.49, 0.106016
1614.0, 0.106291
1614.5, 0.106704
1615.0, 0.107186
1615.51, 0.107324
1616.01, 0.107117
1616.51, 0.107117
1617.02, 0.107530
1617.52, 0.107806
1618.03, 0.107874
1618.53, 0.107943
1619.04, 0.107874
1619.54, 0.107599
1620.05, 0.107737
1620.55, 0.107943
1621.06, 0.108425
1621.57, 0.108907
1622.08, 0.109251
1622.58, 0.109182
1623.09, 0.109251
1623.6, 0.109045
1624.11, 0.109045
1624.62, 0.109527
1625.13, 0.110146
1625.64, 0.110215
1626.15, 0.110628
1626.66, 0.110628
1627.17, 0.110284
1627.68, 0.110490
1628.19, 0.110766
1628.7, 0.110490
1629.21, 0.110697
1629.72, 0.111454
1630.24, 0.112005
1630.75, 0.111798
1631.26, 0.111661
1631.78, 0.111798
1632.29, 0.112280
1632.8, 0.112211
1633.32, 0.112074
1633.83, 0.112556
1634.35, 0.113175
1634.86, 0.113313
1635.38, 0.113244
1635.9, 0.113244
1636.41, 0.113451
1636.93, 0.113588
1637.45, 0.113726
1637.96, 0.113451
1638.48, 0.113657
1639.0, 0.113588
1639.52, 0.113864
1640.04, 0.113932
1640.56, 0.113795
1641.08, 0.113932
1641.59, 0.114483
1642.11, 0.114759
1642.63, 0.114896
1643.16, 0.115309
1643.68, 0.115240
1644.2, 0.115309
1644.72, 0.115722
1645.24, 0.115516
1645.76, 0.115860
1646.29, 0.116480
1646.81, 0.116342
1647.33, 0.115929
1647.86, 0.115998
1648.38, 0.116617
1648.9, 0.116893
1649.43, 0.116824
1649.95, 0.116893
1650.48, 0.117030
1651.0, 0.117375
1651.53, 0.117788
1652.06, 0.118201
1652.58, 0.117925
1653.11, 0.117581
1653.64, 0.117719
1654.17, 0.117925
1654.69, 0.118201
1655.22, 0.118614
1655.75, 0.118889
1656.28, 0.119233
1656.81, 0.119096
1657.34, 0.119096
1657.87, 0.119646
1658.4, 0.119922
1658.93, 0.119509
1659.46, 0.119440
1659.99, 0.119853
1660.52, 0.120197
1661.05, 0.120128
1661.59, 0.120197
1662.12, 0.120266
1662.65, 0.120197
1663.19, 0.120197
1663.72, 0.120472
1664.26, 0.120748
1664.79, 0.120885
1665.32, 0.121643
1665.86, 0.121987
1666.39, 0.121436
1666.93, 0.121574
1667.47, 0.121574
1668.0, 0.121643
1668.54, 0.122331
1669.08, 0.122538
1669.61, 0.122331
1670.15, 0.122331
1670.69, 0.122262
1671.23, 0.122331
1671.77, 0.122744
1672.31, 0.123019
1672.85, 0.122951
1673.39, 0.123501
1673.93, 0.123846
1674.47, 0.123846
1675.01, 0.123639
1675.55, 0.123570
1676.09, 0.123433
1676.64, 0.123570
1677.18, 0.123846
1677.72, 0.123983
1678.26, 0.123983
1678.81, 0.124259
1679.35, 0.124327
1679.89, 0.124534
1680.44, 0.124603
1680.98, 0.124741
1681.53, 0.124809
1682.07, 0.125085
1682.62, 0.125222
1683.17, 0.125360
1683.71, 0.125704
1684.26, 0.126186
1684.81, 0.126049
1685.36, 0.125911
1685.9, 0.126049
1686.45, 0.126530
1687.0, 0.126943
1687.55, 0.126875
1688.1, 0.126393
1688.65, 0.126462
1689.2, 0.126806
1689.75, 0.126668
1690.3, 0.126599
1690.85, 0.127425
1691.41, 0.127563
1691.96, 0.127563
1692.51, 0.128045
1693.06, 0.128320
1693.61, 0.127907
1694.17, 0.127770
1694.72, 0.128114
1695.28, 0.128733
1695.83, 0.128940
1696.39, 0.129078
1696.94, 0.129009
1697.5, 0.129009
1698.05, 0.129146
1698.61, 0.129353
1699.17, 0.129215
1699.72, 0.129491
1700.28, 0.129904
1700.84, 0.129835
1701.4, 0.129904
1701.95, 0.130386
1702.51, 0.130386
1703.07, 0.130523
1703.63, 0.130523
1704.19, 0.130730
1704.75, 0.130799
1705.31, 0.131005
1705.88, 0.131212
1706.44, 0.131487
1707.0, 0.131418
1707.56, 0.131143
1708.12, 0.131074
1708.69, 0.131349
1709.25, 0.131280
1709.81, 0.131349
1710.38, 0.131762
1710.94, 0.132175
1711.51, 0.132244
1712.07, 0.132313
1712.64, 0.132588
1713.2, 0.132726
1713.77, 0.132726
1714.34, 0.133001
1714.9, 0.133346
1715.47, 0.133277
1716.04, 0.133346
1716.61, 0.133690
1717.18, 0.133277
1717.74, 0.133483
1718.31, 0.133965
1718.88, 0.134241
1719.45, 0.134378
1720.02, 0.134654
1720.59, 0.134585
1721.17, 0.134585
1721.74, 0.135067
1722.31, 0.135411
1722.88, 0.135273
1723.45, 0.135411
1724.03, 0.135617
1724.6, 0.135824
1725.18, 0.135962
1725.75, 0.135893
1726.33, 0.135893
1726.9, 0.136030
1727.48, 0.135962
1728.05, 0.136168
1728.63, 0.136581
1729.2, 0.136719
1729.78, 0.136512
1730.36, 0.136650
1730.94, 0.136925
1731.51, 0.137338
1732.09, 0.137270
1732.67, 0.137338
1733.25, 0.137270
1733.83, 0.137407
1734.41, 0.137683
1734.99, 0.138096
1735.57, 0.138440
1736.15, 0.138302
1736.73, 0.138096
1737.32, 0.138715
1737.9, 0.139060
1738.48, 0.138991
1739.07, 0.139060
1739.65, 0.139335
1740.23, 0.139266
1740.82, 0.139266
1741.4, 0.139473
1741.99, 0.139679
1742.57, 0.139817
1743.16, 0.139817
1743.74, 0.140023
1744.33, 0.140230
1744.92, 0.140368
1745.51, 0.140712
1746.09, 0.140781
1746.68, 0.140781
1747.27, 0.141056
1747.86, 0.141331
1748.45, 0.141194
1749.04, 0.141538
1749.63, 0.141675
1750.22, 0.141538
1750.81, 0.141400
1751.4, 0.141882
1751.99, 0.142020
1752.59, 0.142020
1753.18, 0.142295
1753.77, 0.142502
1754.37, 0.142295
1754.96, 0.142295
1755.56, 0.142502
1756.15, 0.142708
1756.74, 0.142708
1757.34, 0.143052
1757.94, 0.143259
1758.53, 0.143259
1759.13, 0.143328
1759.73, 0.143741
1760.32, 0.143741
1760.92, 0.143741
1761.52, 0.143741
1762.12, 0.143878
1762.72, 0.144016
1763.32, 0.144085
1763.92, 0.143947
1764.52, 0.144016
1765.12, 0.144567
1765.72, 0.145049
1766.32, 0.145255
1766.92, 0.145324
1767.53, 0.145186
1768.13, 0.145049
1768.73, 0.145393
1769.34, 0.145875
1769.94, 0.146012
1770.55, 0.145737
1771.15, 0.145462
1771.76, 0.145875
1772.36, 0.146012
1772.97, 0.146219
1773.57, 0.146563
1774.18, 0.146632
1774.79, 0.146770
1775.4, 0.147114
1776.0, 0.147320
1776.61, 0.147252
1777.22, 0.147389
1777.83, 0.147734
1778.44, 0.147734
1779.05, 0.148215
1779.66, 0.148215
1780.27, 0.148215
1780.88, 0.148422
1781.5, 0.148628
1782.11, 0.148766
1782.72, 0.148766
1783.33, 0.148835
1783.95, 0.149042
1784.56, 0.148973
1785.18, 0.149110
1785.79, 0.149248
1786.41, 0.149386
1787.02, 0.149455
1787.64, 0.149523
1788.26, 0.149661
1788.87, 0.150074
1789.49, 0.150281
1790.11, 0.150418
1790.73, 0.150349
1791.35, 0.150625
1791.96, 0.150694
1792.58, 0.150694
1793.21, 0.150694
1793.83, 0.150900
1794.45, 0.151176
1795.07, 0.151382
1795.69, 0.151657
1796.31, 0.151864
1796.93, 0.151933
1797.56, 0.152208
1798.18, 0.152484
1798.8, 0.152484
1799.43, 0.152484
1800.05, 0.152552
1800.68, 0.152621
1801.3, 0.152759
1801.93, 0.152828
1802.56, 0.153103
1803.18, 0.153034
1803.81, 0.153241
1804.44, 0.153654
1805.07, 0.153860
1805.7, 0.154067
1806.33, 0.154136
1806.95, 0.154205
1807.58, 0.154136
1808.22, 0.154342
1808.85, 0.154618
1809.48, 0.154618
1810.11, 0.154480
1810.74, 0.154549
1811.38, 0.154893
1812.01, 0.155100
1812.64, 0.155306
1813.28, 0.155650
1813.91, 0.155719
1814.55, 0.155581
1815.18, 0.155719
1815.82, 0.155857
1816.45, 0.156339
1817.09, 0.156821
1817.73, 0.156752
1818.36, 0.156545
1819.0, 0.156683
1819.64, 0.157027
1820.28, 0.157234
1820.92, 0.157302
1821.56, 0.157922
1822.2, 0.157922
1822.84, 0.157509
1823.48, 0.157716
1824.12, 0.158197
1824.76, 0.158335
1825.41, 0.158542
1826.05, 0.158679
1826.69, 0.158748
1827.34, 0.158748
1827.98, 0.158955
1828.63, 0.159161
1829.27, 0.159574
1829.92, 0.159712
1830.56, 0.159781
1831.21, 0.159918
1831.86, 0.160056
1832.5, 0.160125
1833.15, 0.159987
1833.8, 0.159918
1834.45, 0.160400
1835.1, 0.160607
1835.75, 0.160469
1836.4, 0.160331
1837.05, 0.160538
1837.7, 0.161020
1838.35, 0.161158
1839.01, 0.161364
1839.66, 0.161571
1840.31, 0.161639
1840.96, 0.162190
1841.62, 0.162328
1842.27, 0.161984
1842.93, 0.162190
1843.58, 0.162397
1844.24, 0.162466
1844.9, 0.162328
1845.55, 0.162328
1846.21, 0.162603
1846.87, 0.163016
1847.53, 0.163154
1848.18, 0.163429
1848.84, 0.163567
1849.5, 0.163705
1850.16, 0.163705
1850.82, 0.163842
1851.48, 0.163911
1852.14, 0.163911
1852.81, 0.164049
1853.47, 0.164462
1854.13, 0.164669
1854.8, 0.164737
1855.46, 0.164737
1856.12, 0.164806
1856.79, 0.165013
1857.45, 0.164875
1858.12, 0.164875
1858.79, 0.165288
1859.45, 0.165495
1860.12, 0.165632
1860.79, 0.165908
1861.46, 0.166045
1862.12, 0.166252
1862.79, 0.166458
1863.46, 0.166527
1864.13, 0.166596
1864.8, 0.166734
1865.48, 0.166734
1866.15, 0.166803
1866.82, 0.166940
1867.49, 0.167216
1868.16, 0.167147
1868.84, 0.167353
1869.51, 0.167835
1870.19, 0.167973
1870.86, 0.167973
1871.54, 0.168179
1872.21, 0.168317
1872.89, 0.168317
1873.56, 0.168455
1874.24, 0.168524
1874.92, 0.168868
1875.6, 0.169006
1876.28, 0.168868
1876.96, 0.168868
1877.64, 0.169006
1878.32, 0.169487
1879.0, 0.169625
1879.68, 0.169625
1880.36, 0.169763
1881.04, 0.169900
1881.73, 0.169832
1882.41, 0.169900
1883.09, 0.170107
1883.78, 0.170520
1884.46, 0.170451
1885.15, 0.170520
1885.83, 0.170520
1886.52, 0.170727
1887.21, 0.170795
1887.89, 0.171071
1888.58, 0.171277
1889.27, 0.171553
1889.96, 0.171621
1890.65, 0.171553
1891.34, 0.171484
1892.03, 0.171621
1892.72, 0.171621
1893.41, 0.171690
1894.1, 0.171828
1894.79, 0.171897
1895.49, 0.171966
1896.18, 0.172241
1896.87, 0.172379
1897.57, 0.172310
1898.26, 0.172241
1898.96, 0.172448
1899.65, 0.172654
1900.35, 0.172792
1901.05, 0.172998
1901.74, 0.173274
1902.44, 0.173342
1903.14, 0.173067
1903.84, 0.173136
1904.54, 0.173549
1905.24, 0.173480
1905.94, 0.173549
1906.64, 0.173756
1907.34, 0.173756
1908.04, 0.173756
1908.75, 0.173893
1909.45, 0.173893
1910.15, 0.174100
1910.86, 0.174375
1911.56, 0.174788
1912.27, 0.174650
1912.97, 0.174650
1913.68, 0.174857
1914.39, 0.175132
1915.09, 0.175270
1915.8, 0.175408
1916.51, 0.175614
1917.22, 0.175752
1917.93, 0.175821
1918.64, 0.175958
1919.35, 0.176165
1920.06, 0.176440
1920.77, 0.176716
1921.48, 0.176785
1922.19, 0.176853
1922.91, 0.177060
1923.62, 0.177129
1924.33, 0.177266
1925.05, 0.177611
1925.76, 0.178093
1926.48, 0.178437
1927.19, 0.178506
1927.91, 0.178643
1928.63, 0.178988
1929.35, 0.179056
1930.07, 0.179056
1930.78, 0.179194
1931.5, 0.179538
1932.22, 0.179538
1932.94, 0.179469
1933.66, 0.179745
1934.39, 0.180089
1935.11, 0.180502
1935.83, 0.180640
1936.55, 0.180640
1937.28, 0.180571
1938.0, 0.180502
1938.73, 0.180846
1939.45, 0.181259
1940.18, 0.181603
1940.9, 0.181810
1941.63, 0.182085
1942.36, 0.182154
1943.09, 0.182292
1943.81, 0.182430
1944.54, 0.182636
1945.27, 0.182636
1946.0, 0.182636
1946.73, 0.182843
1947.47, 0.183187
1948.2, 0.183256
1948.93, 0.183462
1949.66, 0.183806
1950.4, 0.184013
1951.13, 0.184013
1951.86, 0.184013
1952.6, 0.184219
1953.34, 0.184564
1954.07, 0.184701
1954.81, 0.184770
1955.55, 0.184977
1956.29, 0.185114
1957.02, 0.185183
1957.76, 0.185459
1958.5, 0.185803
1959.24, 0.185872
1959.98, 0.185872
1960.72, 0.186009
1961.47, 0.186216
1962.21, 0.186491
1962.95, 0.186422
1963.7, 0.186491
1964.44, 0.186973
1965.18, 0.187248
1965.93, 0.187455
1966.67, 0.187799
1967.42, 0.187868
1968.17, 0.188075
1968.92, 0.188075
1969.66, 0.188143
1970.41, 0.188488
1971.16, 0.188763
1971.91, 0.188969
1972.66, 0.189038
1973.41, 0.189176
1974.16, 0.189451
1974.92, 0.189658
1975.67, 0.189933
1976.42, 0.189864
1977.18, 0.190071
1977.93, 0.190277
1978.69, 0.190346
1979.44, 0.190622
1980.2, 0.191035
1980.95, 0.191241
1981.71, 0.191517
1982.47, 0.191585
1983.23, 0.191861
1983.99, 0.191999
1984.74, 0.192136
1985.51, 0.192343
1986.27, 0.192412
1987.03, 0.192549
1987.79, 0.192756
1988.55, 0.193100
1989.32, 0.193582
1990.08, 0.193720
1990.84, 0.193582
1991.61, 0.193651
1992.37, 0.194133
1993.14, 0.194408
1993.9, 0.194408
1994.67, 0.194683
1995.44, 0.195096
1996.21, 0.195234
1996.98, 0.195234
1997.75, 0.195303
1998.52, 0.195509
1999.29, 0.195854
2000.06, 0.196336
2000.83, 0.196336
2001.6, 0.196267
2002.38, 0.196542
2003.15, 0.196955
2003.93, 0.197299
2004.7, 0.197437
2005.48, 0.197368
2006.25, 0.197437
2007.03, 0.197781
2007.81, 0.198057
2008.58, 0.198263
2009.36, 0.198470
2010.14, 0.198814
2010.92, 0.199227
2011.7, 0.199227
2012.48, 0.199433
2013.26, 0.199709
2014.05, 0.199984
2014.83, 0.200053
2015.61, 0.200397
2016.4, 0.200604
2017.18, 0.200741
2017.97, 0.201017
2018.75, 0.201292
2019.54, 0.201292
2020.32, 0.201361
2021.11, 0.201567
2021.9, 0.201843
2022.69, 0.202049
2023.48, 0.202187
2024.27, 0.202256
2025.06, 0.202394
2025.85, 0.202669
2026.64, 0.202944
2027.44, 0.203013
2028.23, 0.203220
2029.02, 0.203357
2029.82, 0.203702
2030.61, 0.203839
2031.41, 0.204115
2032.2, 0.204321
2033.0, 0.204528
2033.8, 0.204734
2034.6, 0.204941
2035.4, 0.204941
2036.2, 0.205147
2037.0, 0.205423
2037.8, 0.205698
2038.6, 0.205904
2039.4, 0.206249
2040.2, 0.206524
2041.01, 0.206731
2041.81, 0.206868
2042.61, 0.207212
2043.42, 0.207281
2044.22, 0.207075
2045.03, 0.207281
2045.84, 0.207625
2046.65, 0.207763
2047.46, 0.207970
2048.26, 0.208245
2049.07, 0.208314
2049.88, 0.208314
2050.69, 0.208520
2051.51, 0.208727
2052.32, 0.209140
2053.13, 0.209347
2053.94, 0.209622
2054.76, 0.209760
2055.57, 0.209897
2056.39, 0.209966
2057.2, 0.210104
2058.02, 0.210173
2058.84, 0.210448
2059.66, 0.210861
2060.48, 0.211205
2061.29, 0.211205
2062.11, 0.211549
2062.94, 0.211894
2063.76, 0.211963
2064.58, 0.212031
2065.4, 0.212169
2066.22, 0.212100
2067.05, 0.212307
2067.87, 0.212720
2068.7, 0.213064
2069.52, 0.213271
2070.35, 0.213477
2071.18, 0.213408
2072.0, 0.213408
2072.83, 0.213546
2073.66, 0.213890
2074.49, 0.214303
2075.32, 0.214578
2076.15, 0.214854
2076.98, 0.214923
2077.82, 0.215060
2078.65, 0.215129
2079.48, 0.215267
2080.32, 0.215611
2081.15, 0.215680
2081.99, 0.215818
2082.83, 0.216093
2083.66, 0.216437
2084.5, 0.216575
2085.34, 0.216919
2086.18, 0.217057
2087.02, 0.216988
2087.86, 0.216988
2088.7, 0.217332
2089.54, 0.217608
2090.39, 0.217883
2091.23, 0.218158
2092.07, 0.218227
2092.92, 0.218365
2093.76, 0.218571
2094.61, 0.218571
2095.45, 0.218709
2096.3, 0.218984
2097.15, 0.219397
2098.0, 0.219673
2098.85, 0.219948
2099.7, 0.220086
2100.55, 0.220361
2101.4, 0.220637
2102.25, 0.220705
2103.1, 0.220843
2103.96, 0.221187
2104.81, 0.221325
2105.67, 0.221600
2106.52, 0.221807
2107.38, 0.222013
2108.24, 0.222220
2109.09, 0.222495
2109.95, 0.222633
2110.81, 0.223046
2111.67, 0.223390
2112.53, 0.223459
2113.39, 0.223459
2114.25, 0.223390
2115.12, 0.223528
2115.98, 0.223872
2116.84, 0.224216
2117.71, 0.224492
2118.58, 0.224560
2119.44, 0.224629
2120.31, 0.224560
2121.18, 0.224698
2122.04, 0.225042
2122.91, 0.225387
2123.78, 0.225455
2124.65, 0.225593
2125.52, 0.226006
2126.4, 0.226350
2127.27, 0.226281
2128.14, 0.226419
2129.02, 0.226488
2129.89, 0.226626
2130.77, 0.226763
2131.64, 0.226832
2132.52, 0.227039
2133.4, 0.227314
2134.27, 0.227521
2135.15, 0.227796
2136.03, 0.228071
2136.91, 0.228278
2137.79, 0.228347
2138.68, 0.228347
2139.56, 0.228553
2140.44, 0.228760
2141.33, 0.228622
2142.21, 0.228829
2143.1, 0.229173
2143.99, 0.229104
2144.87, 0.229104
2145.76, 0.229379
2146.65, 0.229379
2147.54, 0.229517
2148.43, 0.229930
2149.32, 0.230205
2150.21, 0.230274
2151.1, 0.230343
2151.99, 0.230412
2152.89, 0.230619
2153.78, 0.230894
2154.68, 0.231169
2155.57, 0.231169
2156.47, 0.231032
2157.37, 0.231032
2158.27, 0.231238
2159.16, 0.231513
2160.06, 0.231651
2160.96, 0.231995
2161.86, 0.232202
2162.77, 0.232202
2163.67, 0.232340
2164.57, 0.232477
2165.48, 0.232546
2166.38, 0.232684
2167.29, 0.232821
2168.2, 0.232959
2169.1, 0.233028
2170.01, 0.233028
2170.92, 0.233303
2171.83, 0.233648
2172.74, 0.233785
2173.65, 0.233854
2174.56, 0.234061
2175.47, 0.234129
2176.39, 0.234129
2177.3, 0.234129
2178.22, 0.234336
2179.13, 0.234336
2180.05, 0.234336
2180.96, 0.234405
2181.88, 0.234542
2182.8, 0.234542
2183.72, 0.234405
2184.64, 0.234611
2185.56, 0.234818
2186.48, 0.234887
2187.41, 0.235024
2188.33, 0.235093
2189.25, 0.235162
2190.18, 0.235231
2191.1, 0.235437
2192.03, 0.235437
2192.96, 0.235575
2193.89, 0.235713
2194.82, 0.235713
2195.74, 0.235644
2196.68, 0.235782
2197.61, 0.235919
2198.54, 0.236057
2199.47, 0.236126
2200.4, 0.236263
2201.34, 0.236332
2202.28, 0.236470
2203.21, 0.236470
2204.15, 0.236470
2205.08, 0.236401
2206.02, 0.236608
2206.96, 0.236745
2207.9, 0.236745
2208.84, 0.236814
2209.78, 0.236883
2210.73, 0.236883
2211.67, 0.237090
2212.61, 0.237158
2213.56, 0.236952
2214.5, 0.237021
2215.45, 0.237021
2216.4, 0.237021
2217.35, 0.237090
2218.3, 0.237021
2219.24, 0.236677
2220.2, 0.236539
2221.15, 0.236470
2222.1, 0.236539
2223.05, 0.236470
2224.0, 0.236470
2224.96, 0.236608
2225.91, 0.236539
2226.87, 0.236332
2227.83, 0.236126
2228.79, 0.235919
2229.74, 0.235782
2230.7, 0.235919
2231.66, 0.235713
2232.63, 0.235506
2233.59, 0.235437
2234.55, 0.235093
2235.51, 0.234887
2236.48, 0.234749
2237.44, 0.234474
2238.41, 0.234267
2239.38, 0.234129
2240.34, 0.233716
2241.31, 0.233303
2242.28, 0.233097
2243.25, 0.232890
2244.22, 0.232546
2245.19, 0.232340
2246.17, 0.232271
2247.14, 0.231995
2248.12, 0.231513
2249.09, 0.231307
2250.07, 0.231238
2251.04, 0.231169
2252.02, 0.230894
2253.0, 0.230619
2253.98, 0.230481
2254.96, 0.230343
2255.94, 0.230274
2256.92, 0.230137
2257.91, 0.229999
2258.89, 0.230068
2259.88, 0.230137
2260.86, 0.230274
2261.85, 0.230343
2262.83, 0.230343
2263.82, 0.230068
2264.81, 0.229792
2265.8, 0.229517
2266.79, 0.229379
2267.78, 0.229586
2268.78, 0.229724
2269.77, 0.229586
2270.76, 0.229724
2271.76, 0.229999
2272.75, 0.230274
2273.75, 0.230619
2274.75, 0.230825
2275.75, 0.231169
2276.75, 0.231307
2277.75, 0.231307
2278.75, 0.231513
2279.75, 0.231445
2280.75, 0.230963
2281.76, 0.230481
2282.76, 0.229861
2283.77, 0.229104
2284.77, 0.228278
2285.78, 0.227108
2286.79, 0.225800
2287.8, 0.224492
2288.81, 0.223184
2289.82, 0.221807
2290.83, 0.220568
2291.84, 0.219260
2292.86, 0.217814
2293.87, 0.216437
2294.89, 0.215129
2295.91, 0.213684
2296.92, 0.212376
2297.94, 0.211136
2298.96, 0.209966
2299.98, 0.209002
2301.0, 0.207901
2302.02, 0.206868
2303.04, 0.206042
2304.07, 0.205285
2305.09, 0.204596
2306.12, 0.203977
2307.15, 0.203151
2308.17, 0.202462
2309.2, 0.202049
2310.23, 0.201843
2311.26, 0.201705
2312.29, 0.201705
2313.32, 0.201705
2314.35, 0.202256
2315.39, 0.202875
2316.42, 0.203564
2317.46, 0.204390
2318.5, 0.205216
2319.53, 0.206180
2320.57, 0.207212
2321.61, 0.208589
2322.65, 0.210035
2323.69, 0.211274
2324.73, 0.212582
2325.78, 0.213752
2326.82, 0.214785
2327.86, 0.215955
2328.91, 0.217057
2329.96, 0.218021
2331.01, 0.218915
2332.05, 0.219673
2333.1, 0.220155
2334.15, 0.220705
2335.21, 0.221118
2336.26, 0.221394
2337.31, 0.221600
2338.36, 0.221531
2339.42, 0.221331
2340.48, 0.221331
2341.53, 0.221198
2342.59, 0.220598
2343.65, 0.220198
2344.71, 0.219931
2345.77, 0.219331
2346.83, 0.218264
2347.9, 0.217797
2348.96, 0.217597
2350.02, 0.217264
2351.09, 0.216530
2352.16, 0.215796
2353.23, 0.215263
2354.29, 0.214729
2355.36, 0.214129
2356.43, 0.213729
2357.51, 0.213196
2358.58, 0.212862
2359.65, 0.212462
2360.73, 0.212129
2361.8, 0.211929
2362.88, 0.211795
2363.96, 0.211662
2365.03, 0.211395
2366.11, 0.211595
2367.19, 0.211862
2368.27, 0.212062
2369.36, 0.212462
2370.44, 0.213329
2371.53, 0.214329
2372.61, 0.215263
2373.7, 0.216130
2374.78, 0.217264
2375.87, 0.218731
2376.96, 0.219864
2378.05, 0.221198
2379.14, 0.222665
2380.24, 0.224466
2381.33, 0.226199
2382.42, 0.227933
2383.52, 0.229467
2384.61, 0.231068
2385.71, 0.232735
2386.81, 0.234202
2387.91, 0.235536
2389.01, 0.237003
2390.11, 0.238536
2391.22, 0.239870
2392.32, 0.241204
2393.42, 0.242604
2394.53, 0.243871
2395.64, 0.244872
2396.74, 0.245939
2397.85, 0.247206
2398.96, 0.248006
2400.07, 0.248806
2401.18, 0.249273
2402.3, 0.249606
2403.41, 0.250340
2404.52, 0.251140
2405.64, 0.251740
2406.76, 0.252074
2407.88, 0.252074
2408.99, 0.252607
2410.11, 0.252941
2411.23, 0.253007
2412.36, 0.253074
2413.48, 0.253141
2414.6, 0.253341
2415.73, 0.253474
2416.85, 0.253674
2417.98, 0.253808
2419.11, 0.253474
2420.24, 0.253407
2421.37, 0.253207
2422.5, 0.253141
2423.64, 0.252807
2424.77, 0.252407
2425.9, 0.252074
2427.04, 0.251874
2428.18, 0.251540
2429.31, 0.251140
2430.45, 0.250807
2431.59, 0.250340
2432.73, 0.249873
2433.88, 0.249606
2435.02, 0.249340
2436.16, 0.248873
2437.31, 0.248406
2438.45, 0.248006
2439.6, 0.247606
2440.75, 0.247472
2441.9, 0.247006
2443.05, 0.246539
2444.2, 0.246205
2445.35, 0.245672
2446.51, 0.245405
2447.67, 0.245072
2448.82, 0.244872
2449.98, 0.244872
2451.14, 0.244738
2452.3, 0.244405
2453.46, 0.244005
2454.62, 0.244071
2455.78, 0.244005
2456.94, 0.243605
2458.11, 0.243138
2459.28, 0.243071
2460.44, 0.243071
2461.61, 0.242871
2462.78, 0.242538
2463.95, 0.242404
2465.12, 0.242271
2466.3, 0.242071
2467.47, 0.241737
2468.65, 0.241804
2469.82, 0.241737
2471.0, 0.241537
2472.18, 0.241404
2473.36, 0.241004
2474.54, 0.240870
2475.72, 0.241004
2476.9, 0.240604
2478.08, 0.240070
2479.27, 0.239803
2480.46, 0.239670
2481.64, 0.239337
2482.83, 0.239337
2484.02, 0.239403
2485.21, 0.239270
2486.4, 0.239070
2487.6, 0.239137
2488.79, 0.239403
2489.99, 0.239603
2491.18, 0.239537
2492.38, 0.239737
2493.58, 0.240070
2494.78, 0.240404
2495.98, 0.240404
2497.18, 0.240737
2498.39, 0.241404
2499.59, 0.241737
2500.8, 0.241671
2502.01, 0.241937
2503.21, 0.242404
2504.42, 0.242538
2505.63, 0.242804
2506.84, 0.243138
2508.06, 0.243271
2509.27, 0.243538
2510.49, 0.243671
2511.7, 0.243538
2512.92, 0.243738
2514.14, 0.244271
2515.36, 0.244738
2516.58, 0.245005
2517.8, 0.245205
2519.03, 0.245605
2520.25, 0.245939
2521.48, 0.246139
2522.7, 0.246539
2523.93, 0.246939
2525.16, 0.247139
2526.39, 0.247339
2527.62, 0.247606
2528.86, 0.248073
2530.09, 0.248539
2531.33, 0.249073
2532.56, 0.249473
2533.8, 0.249940
2535.04, 0.250607
2536.28, 0.251140
2537.52, 0.251273
2538.76, 0.251474
2540.01, 0.251607
2541.25, 0.252140
2542.5, 0.252941
2543.75, 0.252874
2544.99, 0.252741
2546.24, 0.253274
2547.49, 0.254074
2548.75, 0.254141
2550.0, 0.254341
2551.26, 0.255008
2552.51, 0.255408
2553.77, 0.254941
2555.03, 0.254208
2556.29, 0.254208
2557.55, 0.254474
2558.81, 0.255141
2560.08, 0.256675
2561.34, 0.257809
2562.61, 0.257609
2563.88, 0.257409
2565.14, 0.256142
2566.41, 0.254941
2567.68, 0.255275
2568.96, 0.256675
2570.23, 0.256208
2571.51, 0.255475
2572.78, 0.256875
2574.06, 0.255942
2575.34, 0.255008
2576.62, 0.255408
2577.9, 0.254074
2579.18, 0.253474
2580.47, 0.253941
2581.75, 0.253941
2583.04, 0.255341
2584.32, 0.254408
2585.61, 0.252340
2586.9, 0.252741
2588.2, 0.251607
2589.49, 0.250073
2590.78, 0.248873
2592.08, 0.248873
2593.37, 0.252207
2594.67, 0.254875
2595.97, 0.250073
2597.27, 0.245872
2598.57, 0.244205
2599.88, 0.244071
2601.18, 0.244471
2602.49, 0.244205
2603.79, 0.244805
2605.1, 0.245672
2606.41, 0.243871
2607.72, 0.242338
2609.03, 0.241537
2610.35, 0.240537
2611.66, 0.239737
2612.98, 0.239670
2614.3, 0.239003
2615.62, 0.240537
2616.94, 0.240937
2618.26, 0.239070
2619.58, 0.240070
2620.91, 0.238937
2622.23, 0.236202
2623.56, 0.235536
2624.89, 0.236002
2626.22, 0.237269
2627.55, 0.235402
2628.88, 0.235335
2630.21, 0.236136
2631.55, 0.233335
2632.89, 0.231868
2634.22, 0.231134
2635.56, 0.229467
2636.9, 0.228267
2638.25, 0.226866
2639.59, 0.225933
2640.93, 0.225466
2642.28, 0.224666
2643.63, 0.223399
2644.98, 0.223332
2646.33, 0.222398
2647.68, 0.220798
2649.03, 0.219731
2650.39, 0.219464
2651.74, 0.219998
2653.1, 0.219464
2654.46, 0.218397
2655.82, 0.217864
2657.18, 0.216663
2658.54, 0.216797
2659.9, 0.216330
2661.27, 0.215463
2662.64, 0.214796
2664.01, 0.216330
2665.38, 0.217264
2666.74, 0.215730
2668.12, 0.212996
2669.49, 0.214596
2670.87, 0.213129
2672.24, 0.208261
2673.62, 0.206460
2675.0, 0.206327
2676.38, 0.206060
2677.76, 0.203993
2679.15, 0.201526
2680.54, 0.197858
2681.92, 0.195257
2683.31, 0.192990
2684.7, 0.190389
2686.09, 0.187722
2687.48, 0.184521
2688.88, 0.180920
2690.27, 0.176918
2691.67, 0.172917
2693.07, 0.169183
2694.47, 0.163381
2695.87, 0.156779
2697.27, 0.151711
2698.67, 0.149510
2700.08, 0.148910
2701.49, 0.147310
2702.9, 0.144309
2704.31, 0.141241
2705.72, 0.137974
2707.13, 0.135039
2708.54, 0.132639
2709.96, 0.130038
2711.38, 0.126170
2712.8, 0.121369
2714.22, 0.117968
2715.64, 0.114900
2717.06, 0.111699
2718.49, 0.108965
2719.91, 0.106831
2721.34, 0.102897
2722.77, 0.0997620
2724.2, 0.0974280
2725.63, 0.0938270
2727.07, 0.0903600
2728.5, 0.0878920
2729.94, 0.0857580
2731.38, 0.0834910
2732.82, 0.0815570
2734.26, 0.0801570
2735.7, 0.0779560
2737.15, 0.0764220
2738.59, 0.0754220
2740.04, 0.0738220
2741.49, 0.0716880
2742.94, 0.0697540
2744.39, 0.0680870
2745.84, 0.0666190
2747.3, 0.0650190
2748.76, 0.0632850
2750.21, 0.0620850
2751.67, 0.0608840
2753.14, 0.0594840
2754.6, 0.0585500
2756.06, 0.0569500
2757.53, 0.0551490
2759.0, 0.0538160
2760.46, 0.0526820
2761.94, 0.0518150
2763.41, 0.0508150
2764.88, 0.0496150
2766.36, 0.0486810
2767.83, 0.0480140
2769.31, 0.0474140
2770.79, 0.0464140
2772.27, 0.0452130
2773.76, 0.0445460
2775.24, 0.0444800
2776.73, 0.0448800
2778.22, 0.0450130
2779.71, 0.0448800
2781.2, 0.0445460
2782.69, 0.0440130
2784.18, 0.0432130
2785.68, 0.0425460
2787.18, 0.0417460
2788.68, 0.0406120
2790.18, 0.0398120
2791.68, 0.0390780
2793.19, 0.0383450
2794.69, 0.0376780
2796.2, 0.0368110
2797.71, 0.0360110
2799.22, 0.0355440
2800.73, 0.0350770
2802.24, 0.0348100
2803.76, 0.0344770
2805.28, 0.0341430
2806.8, 0.0340100
2808.32, 0.0339430
2809.84, 0.0337430
2811.36, 0.0340770
2812.89, 0.0345430
2814.42, 0.0347430
2815.94, 0.0348100
2817.48, 0.0350100
2819.01, 0.0350770
2820.54, 0.0349440
2822.08, 0.0350100
2823.61, 0.0349440
2825.15, 0.0348770
2826.69, 0.0348770
2828.23, 0.0351440
2829.78, 0.0354100
2831.32, 0.0356770
2832.87, 0.0360770
2834.42, 0.0365440
2835.97, 0.0372110
2837.52, 0.0378780
2839.08, 0.0387450
2840.63, 0.0397450
2842.19, 0.0406120
2843.75, 0.0416120
2845.31, 0.0429460
2846.87, 0.0443460
2848.44, 0.0456800
2850.0, 0.0471470
2851.57, 0.0483470
2853.14, 0.0494810
2854.71, 0.0506810
2856.28, 0.0521490
2857.86, 0.0537490
2859.43, 0.0551490
2861.01, 0.0566170
2862.59, 0.0580840
2864.17, 0.0593510
2865.76, 0.0606840
2867.34, 0.0616850
2868.93, 0.0623520
2870.52, 0.0630180
2872.11, 0.0636850
2873.7, 0.0642850
2875.29, 0.0646190
2876.89, 0.0647520
2878.49, 0.0649520
2880.08, 0.0652860
2881.69, 0.0654860
2883.29, 0.0654860
2884.89, 0.0656190
2886.5, 0.0658190
2888.11, 0.0659530
2889.72, 0.0658860
2891.33, 0.0656860
2892.94, 0.0657530
2894.56, 0.0659530
2896.17, 0.0659530
2897.79, 0.0658860
2899.42, 0.0657530
2901.04, 0.0656860
2902.66, 0.0656860
2904.29, 0.0656190
2905.92, 0.0654860
2907.55, 0.0652190
2909.18, 0.0652860
2910.81, 0.0653520
2912.45, 0.0653520
2914.08, 0.0653520
2915.72, 0.0652190
2917.36, 0.0652190
2919.01, 0.0652190
2920.65, 0.0653520
2922.3, 0.0653520
2923.94, 0.0652860
2925.59, 0.0652190
2927.25, 0.0650190
2928.9, 0.0650190
2930.56, 0.0652190
2932.21, 0.0652190
2933.87, 0.0650860
2935.53, 0.0650190
2937.2, 0.0648860
2938.86, 0.0648860
2940.53, 0.0649520
2942.2, 0.0649520
2943.87, 0.0649520
2945.54, 0.0646860
2947.22, 0.0645520
2948.89, 0.0644190
2950.57, 0.0643520
2952.25, 0.0642850
2953.93, 0.0644190
2955.62, 0.0642190
2957.3, 0.0642190
2958.99, 0.0644190
2960.68, 0.0644190
2962.37, 0.0642190
2964.07, 0.0641520
2965.76, 0.0643520
2967.46, 0.0646190
2969.16, 0.0648190
2970.86, 0.0647520
2972.56, 0.0648190
2974.27, 0.0648860
2975.98, 0.0652190
2977.69, 0.0654860
2979.4, 0.0654190
2981.11, 0.0652860
2982.83, 0.0652860
2984.54, 0.0653520
2986.26, 0.0655530
2987.98, 0.0656860
2989.71, 0.0656860
2991.43, 0.0657530
2993.16, 0.0657530
2994.89, 0.0657530
2996.62, 0.0658190
2998.35, 0.0658860
3000.09, 0.0658860
3001.83, 0.0659530
3003.57, 0.0659530
3005.31, 0.0658190
3007.05, 0.0658190
3008.79, 0.0660190
3010.54, 0.0662860
3012.29, 0.0661530
3014.04, 0.0660860
3015.8, 0.0661530
3017.55, 0.0662190
3019.31, 0.0662860
3021.07, 0.0664190
3022.83, 0.0662860
3024.59, 0.0664190
3026.36, 0.0665530
3028.13, 0.0666860
3029.9, 0.0667530
3031.67, 0.0666860
3033.44, 0.0667530
3035.22, 0.0668200
3037.0, 0.0670860
3038.78, 0.0672200
3040.56, 0.0672200
3042.34, 0.0671530
3044.13, 0.0671530
3045.92, 0.0672200
3047.71, 0.0672860
3049.5, 0.0672860
3051.3, 0.0672860
3053.09, 0.0672860
3054.89, 0.0673530
3056.69, 0.0674860
3058.5, 0.0675530
3060.3, 0.0676860
3062.11, 0.0678200
3063.92, 0.0679530
3065.73, 0.0679530
3067.55, 0.0679530
3069.36, 0.0680200
3071.18, 0.0682200
3073.0, 0.0682200
3074.82, 0.0682200
3076.65, 0.0682200
3078.48, 0.0683530
3080.31, 0.0684870
3082.14, 0.0687530
3083.97, 0.0689530
3085.8, 0.0690200
3087.64, 0.0690870
3089.48, 0.0691540
3091.33, 0.0694200
3093.17, 0.0696200
3095.02, 0.0696870
3096.87, 0.0696200
3098.72, 0.0697540
3100.57, 0.0700200
3102.43, 0.0704210
3104.28, 0.0706210
3106.14, 0.0707540
3108.01, 0.0709540
3109.87, 0.0712210
3111.74, 0.0714880
3113.61, 0.0716880
3115.48, 0.0719540
3117.35, 0.0722210
3119.23, 0.0723540
3121.1, 0.0726880
3122.98, 0.0728210
3124.87, 0.0730210
3126.75, 0.0733550
3128.64, 0.0737550
3130.53, 0.0739550
3132.42, 0.0742220
3134.31, 0.0744880
3136.21, 0.0746890
3138.11, 0.0748890
3140.01, 0.0750890
3141.91, 0.0754890
3143.82, 0.0760220
3145.73, 0.0763560
3147.64, 0.0766220
3149.55, 0.0769560
3151.46, 0.0772230
3153.38, 0.0774890
3155.3, 0.0778230
3157.22, 0.0781560
3159.14, 0.0785560
3161.07, 0.0790230
3163.0, 0.0792900
3164.93, 0.0796230
3166.86, 0.0800230
3168.8, 0.0803570
3170.74, 0.0806900
3172.68, 0.0811570
3174.62, 0.0815570
3176.56, 0.0818240
3178.51, 0.0820910
3180.46, 0.0824240
3182.42, 0.0827580
3184.37, 0.0830910
3186.33, 0.0834240
3188.29, 0.0838910
3190.25, 0.0844250
3192.21, 0.0849580
3194.18, 0.0852920
3196.15, 0.0855580
3198.12, 0.0858250
3200.09, 0.0862250
3202.07, 0.0866920
3204.05, 0.0870920
3206.03, 0.0873590
3208.02, 0.0878920
3210.0, 0.0883590
3211.99, 0.0886260
3213.98, 0.0890930
3215.98, 0.0895600
3217.97, 0.0898930
3219.97, 0.0902930
3221.97, 0.0906270
3223.98, 0.0910930
3225.98, 0.0912930
3227.99, 0.0916930
3230.0, 0.0922270
3232.02, 0.0925600
3234.03, 0.0929610
3236.05, 0.0934270
3238.07, 0.0938270
3240.1, 0.0942280
3242.12, 0.0946940
3244.15, 0.0950940
3246.18, 0.0956280
3248.22, 0.0959610
3250.25, 0.0963620
3252.29, 0.0966950
3254.33, 0.0970950
3256.38, 0.0976290
3258.43, 0.0979620
3260.47, 0.0982950
3262.53, 0.0985620
3264.58, 0.0987620
3266.64, 0.0990960
3268.7, 0.0994960
3270.76, 0.0998960
3272.82, 0.100296
3274.89, 0.100563
3276.96, 0.100829
3279.04, 0.101163
3281.11, 0.101363
3283.19, 0.101696
3285.27, 0.101963
3287.35, 0.102163
3289.44, 0.102163
3291.53, 0.102230
3293.62, 0.102297
3295.71, 0.102230
3297.81, 0.102097
3299.91, 0.101830
3302.01, 0.101496
3304.11, 0.101096
3306.22, 0.100696
3308.33, 0.100563
3310.44, 0.100296
3312.56, 0.100029
3314.68, 0.0999630
3316.8, 0.100029
3318.92, 0.100229
3321.05, 0.100563
3323.18, 0.100963
3325.31, 0.101363
3327.44, 0.101830
3329.58, 0.102297
3331.72, 0.102697
3333.86, 0.103297
3336.01, 0.103964
3338.16, 0.104297
3340.31, 0.104497
3342.46, 0.104697
3344.61, 0.105097
3346.77, 0.105297
3348.94, 0.105564
3351.1, 0.105831
3353.27, 0.106098
3355.44, 0.106364
3357.61, 0.106631
3359.79, 0.106898
3361.97, 0.107165
3364.15, 0.107431
3366.33, 0.107765
3368.52, 0.108032
3370.71, 0.108298
3372.9, 0.108765
3375.1, 0.109165
3377.3, 0.109499
3379.5, 0.109832
3381.71, 0.110366
3383.91, 0.110899
3386.12, 0.111433
3388.34, 0.111899
3390.55, 0.112566
3392.77, 0.113100
3394.99, 0.113500
3397.22, 0.113767
3399.45, 0.113900
3401.68, 0.114033
3403.91, 0.114033
3406.15, 0.114100
3408.39, 0.114167
3410.63, 0.114233
3412.87, 0.114233
3415.12, 0.114367
3417.37, 0.114767
3419.63, 0.115234
3421.88, 0.115767
3424.14, 0.116367
3426.41, 0.117034
3428.67, 0.117634
3430.94, 0.118368
3433.21, 0.118901
3435.49, 0.119235
3437.77, 0.119502
3440.05, 0.119902
3442.33, 0.120168
3444.62, 0.120369
3446.91, 0.120635
3449.2, 0.120969
3451.5, 0.121436
3453.8, 0.121969
3456.1, 0.122369
3458.41, 0.122903
3460.72, 0.123436
3463.03, 0.123903
3465.34, 0.124370
3467.66, 0.124770
3469.98, 0.125237
3472.31, 0.125637
3474.63, 0.126037
3476.96, 0.126570
3479.3, 0.127037
3481.64, 0.127637
3483.97, 0.128438
3486.32, 0.129371
3488.66, 0.130105
3491.01, 0.130905
3493.36, 0.131505
3495.72, 0.132239
3498.08, 0.133039
3500.44, 0.133973
3502.81, 0.135173
3505.18, 0.136507
3507.55, 0.138174
3509.92, 0.139908
3512.3, 0.141641
3514.68, 0.143309
3517.06, 0.145042
3519.45, 0.146776
3521.84, 0.148643
3524.24, 0.150444
3526.64, 0.152111
3529.04, 0.153845
3531.44, 0.155445
3533.85, 0.157046
3536.26, 0.158580
3538.67, 0.160047
3541.09, 0.161447
3543.51, 0.162648
3545.93, 0.163781
3548.36, 0.164915
3550.79, 0.166115
3553.22, 0.167116
3555.66, 0.168049
3558.1, 0.169116
3560.54, 0.170116
3562.99, 0.171050
3565.44, 0.171984
3567.9, 0.172851
3570.35, 0.173651
3572.81, 0.174518
3575.28, 0.175451
3577.75, 0.176185
3580.22, 0.176918
3582.69, 0.177719
3585.17, 0.178452
3587.65, 0.179186
3590.14, 0.179786
3592.62, 0.180453
3595.11, 0.181120
3597.61, 0.181586
3600.11, 0.182253
3602.61, 0.182920
3605.11, 0.183587
3607.62, 0.184254
3610.14, 0.184787
3612.65, 0.185388
3615.17, 0.185988
3617.69, 0.186588
3620.22, 0.187255
3622.75, 0.187922
3625.28, 0.188722
3627.82, 0.189389
3630.36, 0.189922
3632.9, 0.190589
3635.45, 0.191256
3638.0, 0.191923
3640.56, 0.192656
3643.12, 0.193323
3645.68, 0.193923
3648.24, 0.194524
3650.81, 0.195124
3653.39, 0.195657
3655.96, 0.196257
3658.54, 0.196858
3661.13, 0.197524
3663.71, 0.198058
3666.3, 0.198591
3668.9, 0.199058
3671.5, 0.199658
3674.1, 0.200392
3676.7, 0.201059
3679.31, 0.201459
3681.93, 0.201926
3684.54, 0.202526
3687.17, 0.203193
3689.79, 0.203660
3692.42, 0.204060
3695.05, 0.204393
3697.69, 0.204993
3700.32, 0.205527
3702.97, 0.205927
3705.61, 0.206327
3708.27, 0.206927
3710.92, 0.207461
3713.58, 0.207861
3716.24, 0.208261
3718.91, 0.208661
3721.58, 0.209128
3724.25, 0.209595
3726.93, 0.209995
3729.61, 0.210462
3732.29, 0.210928
3734.98, 0.211195
3737.67, 0.211529
3740.37, 0.211995
3743.07, 0.212129
3745.78, 0.212195
3748.49, 0.212395
3751.2, 0.212329
3753.91, 0.211995
3756.63, 0.211529
3759.36, 0.210928
3762.09, 0.210395
3764.82, 0.209795
3767.55, 0.209128
3770.29, 0.208328
3773.04, 0.207661
3775.78, 0.206927
3778.54, 0.206060
3781.29, 0.205393
3784.05, 0.204660
3786.82, 0.203793
3789.59, 0.203059
3792.36, 0.202393
3795.13, 0.201726
3797.92, 0.200992
3800.7, 0.200325
3803.49, 0.199658
3806.28, 0.199258
3809.08, 0.199058
3811.88, 0.198925
3814.68, 0.198791
3817.49, 0.198925
3820.31, 0.199258
3823.12, 0.199725
3825.94, 0.200259
3828.77, 0.200859
3831.6, 0.201526
3834.43, 0.202259
3837.27, 0.203059
3840.11, 0.203793
3842.96, 0.204593
3845.81, 0.205327
3848.67, 0.205860
3851.53, 0.206194
3854.39, 0.206260
3857.26, 0.205994
3860.13, 0.205593
3863.01, 0.204927
3865.89, 0.204126
3868.77, 0.203326
3871.66, 0.202526
3874.55, 0.201726
3877.45, 0.200992
3880.35, 0.200325
3883.26, 0.199792
3886.17, 0.199392
3889.09, 0.198925
3892.01, 0.198591
3894.93, 0.198191
3897.86, 0.197858
3900.79, 0.197458
3903.73, 0.197124
3906.67, 0.196457
3909.62, 0.195657
3912.57, 0.194990
3915.52, 0.194323
3918.48, 0.193523
3921.45, 0.192523
3924.42, 0.191723
3927.39, 0.191189
3930.37, 0.190656
3933.35, 0.190189
3936.34, 0.189655
3939.33, 0.189055
3942.32, 0.188588
3945.32, 0.187988
3948.33, 0.187388
3951.34, 0.186788
3954.35, 0.186188
3957.37, 0.185654
3960.39, 0.185121
3963.42, 0.184587
3966.45, 0.184187
3969.49, 0.183987
3972.53, 0.183987
3975.58, 0.184387
3978.63, 0.185054
3981.68, 0.185988
3984.75, 0.186988
3987.81, 0.187922
3990.88, 0.188855
3993.95, 0.189922
3997.03, 0.190989
4000.12, 0.192190
4003.21, 0.193457
4006.3, 0.194724
4009.4, 0.195991
4012.5, 0.197458
4015.61, 0.199058
4018.72, 0.200859
4021.84, 0.202659
4024.96, 0.204593
4028.09, 0.206527
4031.22, 0.208528
4034.36, 0.210328
4037.5, 0.212062
4040.65, 0.213729
4043.8, 0.215263
4046.96, 0.216863
4050.12, 0.218264
4053.29, 0.219531
4056.46, 0.220798
4059.64, 0.221865
4062.82, 0.222865
4066.0, 0.223732
4069.19, 0.224599
4072.39, 0.225399
4075.59, 0.226199
4078.8, 0.227000
4082.01, 0.227800
4085.23, 0.228533
4088.45, 0.229067
4091.68, 0.229600
4094.91, 0.230134
4098.15, 0.230534
4101.39, 0.230934
4104.63, 0.231268
4107.89, 0.231534
4111.14, 0.231734
4114.41, 0.232001
4117.67, 0.232201
4120.95, 0.232468
4124.23, 0.232601
4127.51, 0.232735
4130.8, 0.232801
4134.09, 0.232801
4137.39, 0.232868
4140.7, 0.232868
4144.01, 0.232868
4147.32, 0.233001
4150.64, 0.232868
4153.97, 0.232868
4157.3, 0.232935
4160.64, 0.232935
4163.98, 0.232801
4167.33, 0.232801
4170.68, 0.232801
4174.04, 0.232868
4177.4, 0.232868
4180.77, 0.232735
4184.14, 0.232601
4187.52, 0.232468
4190.91, 0.232401
4194.3, 0.232401
4197.69, 0.232468
4201.1, 0.232601
4204.5, 0.232868
4207.92, 0.233202
4211.34, 0.233735
4214.76, 0.234269
4218.19, 0.234735
4221.62, 0.235202
4225.06, 0.235469
4228.51, 0.235602
4231.96, 0.235402
4235.42, 0.234935
4238.88, 0.234002
4242.35, 0.232668
4245.83, 0.231001
4249.31, 0.229134
4252.79, 0.227200
4256.28, 0.225599
4259.78, 0.225133
4263.29, 0.225199
4266.79, 0.225333
4270.31, 0.225599
4273.83, 0.226133
4277.35, 0.226666
4280.89, 0.227066
4284.42, 0.227467
4287.97, 0.227867
4291.52, 0.228133
4295.07, 0.228133
4298.63, 0.228000
4302.2, 0.227867
4305.78, 0.227733
4309.35, 0.227533
4312.94, 0.227333
4316.53, 0.227066
4320.13, 0.226800
4323.73, 0.226600
4327.34, 0.226400
4330.96, 0.226266
4334.58, 0.226133
4338.21, 0.225999
4341.84, 0.225799
4345.48, 0.225599
4349.12, 0.225466
4352.77, 0.225199
4356.43, 0.224999
4360.1, 0.224732
4363.76, 0.224399
4367.44, 0.223999
4371.12, 0.223665
4374.81, 0.223132
4378.51, 0.222665
4382.21, 0.222198
4385.92, 0.221598
4389.63, 0.220931
4393.35, 0.220331
4397.08, 0.219731
4400.81, 0.219131
4404.55, 0.218264
4408.29, 0.217597
4412.04, 0.216997
4415.8, 0.216397
4419.57, 0.215663
4423.34, 0.214863
4427.12, 0.214063
4430.9, 0.213396
4434.69, 0.212729
4438.49, 0.212062
4442.29, 0.211262
4446.1, 0.210528
4449.92, 0.209795
4453.74, 0.209061
4457.57, 0.208328
4461.41, 0.207661
4465.25, 0.207061
4469.1, 0.206594
4472.95, 0.206194
4476.82, 0.205860
4480.69, 0.205527
4484.56, 0.205260
4488.44, 0.204927
4492.33, 0.204526
4496.23, 0.204260
4500.13, 0.204060
4504.04, 0.203793
4507.96, 0.203526
4511.88, 0.203193
4515.81, 0.202659
4519.75, 0.202059
4523.69, 0.201592
4527.65, 0.200925
4531.6, 0.200125
4535.57, 0.199458
4539.54, 0.198725
4543.52, 0.197991
4547.5, 0.197191
4551.5, 0.196391
4555.5, 0.195591
4559.5, 0.194590
4563.52, 0.193723
4567.54, 0.192856
4571.56, 0.192056
4575.6, 0.191189
4579.64, 0.190322
4583.69, 0.189322
4587.75, 0.188255
4591.81, 0.187121
4595.88, 0.185921
4599.96, 0.184721
4604.04, 0.183520
4608.14, 0.182187
4612.24, 0.180853
4616.34, 0.179519
4620.46, 0.178252
4624.58, 0.177185
4628.71, 0.176318
4632.84, 0.175318
4636.99, 0.174451
4641.14, 0.173517
4645.3, 0.172584
4649.47, 0.171717
4653.64, 0.170917
4657.82, 0.170316
4662.01, 0.169850
4666.21, 0.169316
4670.41, 0.168783
4674.62, 0.168249
4678.84, 0.167849
4683.07, 0.167716
4687.3, 0.167649
4691.54, 0.167582
4695.79, 0.167582
4700.05, 0.167649
4704.31, 0.167649
4708.59, 0.167382
4712.87, 0.167049
4717.15, 0.166649
4721.45, 0.166249
4725.76, 0.165582
4730.07, 0.164782
4734.39, 0.163915
4738.72, 0.163114
4743.05, 0.162114
4747.39, 0.160914
4751.75, 0.159713
4756.1, 0.158580
4760.47, 0.157246
4764.85, 0.155912
4769.23, 0.154512
4773.62, 0.153111
4778.02, 0.151778
4782.43, 0.150644
4786.85, 0.149377
4791.27, 0.148043
4795.7, 0.146843
4800.14, 0.145776
4804.59, 0.144976
4809.05, 0.144242
4813.51, 0.143775
4817.99, 0.143442
4822.47, 0.142908
4826.96, 0.142442
4831.46, 0.141908
4835.96, 0.141441
4840.48, 0.140975
4845.0, 0.140441
4849.54, 0.139908
4854.08, 0.139241
4858.63, 0.138374
4863.18, 0.137374
4867.75, 0.136373
4872.33, 0.135440
4876.91, 0.134439
4881.5, 0.133572
4886.1, 0.132572
4890.71, 0.131372
4895.33, 0.129971
4899.96, 0.128438
4904.59, 0.126904
4909.24, 0.125437
4913.89, 0.124036
4918.55, 0.122636
4923.22, 0.121302
4927.9, 0.120235
4932.59, 0.119168
4937.29, 0.118168
4942.0, 0.117101
4946.71, 0.115967
4951.44, 0.114700
4956.17, 0.113366
4960.91, 0.111899
4965.67, 0.110499
4970.43, 0.109165
4975.2, 0.108165
4979.98, 0.107365
4984.76, 0.106631
4989.56, 0.105898
4994.37, 0.105297
4999.18, 0.104831
5004.01, 0.104431
5008.84, 0.104030
5013.69, 0.103897
5018.54, 0.104097
5023.4, 0.104497
5028.28, 0.105097
5033.16, 0.105831
5038.05, 0.106364
5042.95, 0.106898
5047.86, 0.107098
5052.78, 0.107165
5057.71, 0.107031
5062.65, 0.106898
5067.6, 0.106698
5072.56, 0.106431
5077.53, 0.106431
5082.5, 0.106564
5087.49, 0.106631
5092.49, 0.106698
5097.5, 0.106765
5102.51, 0.106831
5107.54, 0.106698
5112.58, 0.106498
5117.62, 0.106164
5122.68, 0.105831
5127.75, 0.105431
5132.82, 0.105097
5137.91, 0.104631
5143.01, 0.104230
5148.12, 0.103897
5153.23, 0.103430
5158.36, 0.102897
5163.5, 0.102363
5168.65, 0.101830
5173.81, 0.101230
5178.98, 0.100629
5184.15, 0.100096
5189.34, 0.0994960
5194.54, 0.0988960
5199.75, 0.0982290
5204.98, 0.0972280
5210.21, 0.0962280
5215.45, 0.0950940
5220.7, 0.0935610
5225.96, 0.0919600
5231.23, 0.0904930
5236.52, 0.0890260
5241.81, 0.0874260
5247.12, 0.0859580
5252.44, 0.0844250
5257.76, 0.0830910
5263.1, 0.0818910
5268.45, 0.0805570
5273.81, 0.0792900
5279.18, 0.0780890
5284.56, 0.0768220
5289.95, 0.0758220
5295.36, 0.0747550
5300.77, 0.0738220
5306.2, 0.0729550
5311.63, 0.0719540
5317.08, 0.0710210
5322.54, 0.0702870
5328.01, 0.0695540
5333.49, 0.0688870
5338.98, 0.0681530
5344.49, 0.0676860
5350.0, 0.0672860
5355.53, 0.0666190
5361.07, 0.0659530
5366.62, 0.0654860
5372.18, 0.0651520
5377.75, 0.0648860
5383.34, 0.0645520
5388.93, 0.0644190
5394.54, 0.0643520
5400.16, 0.0642190
5405.79, 0.0641520
5411.44, 0.0641520
5417.09, 0.0642850
5422.76, 0.0641520
5428.43, 0.0634190
5434.12, 0.0628850
5439.83, 0.0622180
5445.54, 0.0615510
5451.26, 0.0606180
5457.0, 0.0597510
5462.75, 0.0588840
5468.52, 0.0575500
5474.29, 0.0563500
5480.08, 0.0552160
5485.88, 0.0540160
5491.69, 0.0530820
5497.51, 0.0522150
5503.35, 0.0513480
5509.2, 0.0507480
5515.06, 0.0501480
5520.93, 0.0496150
5526.82, 0.0490140
5532.71, 0.0484810
5538.63, 0.0480810
5544.55, 0.0476810
5550.49, 0.0475470
5556.44, 0.0472800
5562.4, 0.0469470
5568.37, 0.0467470
5574.36, 0.0470140
5580.36, 0.0469470
5586.37, 0.0465470
5592.4, 0.0464800
5598.44, 0.0466140
5604.49, 0.0466800
5610.56, 0.0467470
5616.63, 0.0468800
5622.73, 0.0468800
5628.83, 0.0470140
5634.95, 0.0473470
5641.08, 0.0477470
5647.23, 0.0477470
5653.39, 0.0478140
5659.56, 0.0477470
5665.74, 0.0478140
5671.94, 0.0482810
5678.15, 0.0485480
5684.38, 0.0486140
5690.62, 0.0488810
5696.87, 0.0488810
5703.14, 0.0491480
5709.42, 0.0494810
5715.72, 0.0493480
5722.03, 0.0490810
5728.35, 0.0488140
5734.69, 0.0486810
5741.03, 0.0486140
5747.4, 0.0485480
5753.78, 0.0480810
5760.17, 0.0481470
5766.58, 0.0481470
5773.0, 0.0473470
5779.44, 0.0468800
5785.88, 0.0464800
5792.35, 0.0461470
5798.83, 0.0459470
5805.32, 0.0455470
5811.83, 0.0453470
5818.35, 0.0456130
5824.89, 0.0453470
5831.45, 0.0444130
5838.01, 0.0436790
5844.59, 0.0431460
5851.19, 0.0427460
5857.8, 0.0423460
5864.43, 0.0418790
5871.07, 0.0412120
5877.73, 0.0412120
5884.4, 0.0405450
5891.09, 0.0396780
5897.79, 0.0388110
5904.5, 0.0374780
5911.23, 0.0366110
5917.98, 0.0359440
5924.75, 0.0353440
5931.53, 0.0352770
5938.32, 0.0346100
5945.13, 0.0334100
5951.96, 0.0327430
5958.8, 0.0320760
5965.65, 0.0318760
5972.53, 0.0314760
5979.42, 0.0308760
5986.32, 0.0307420
5993.24, 0.0303420
6000.18, 0.0296750
6007.13, 0.0292750
6014.1, 0.0289420
6021.08, 0.0285420
6028.09, 0.0281420
6035.1, 0.0278750
6042.14, 0.0280750
6049.19, 0.0282080
6056.25, 0.0272080
6063.34, 0.0266740
6070.44, 0.0266740
6077.55, 0.0262740
6084.69, 0.0258080
6091.84, 0.0254070
6099.0, 0.0252070
6106.19, 0.0254070
6113.39, 0.0255410
6120.61, 0.0250070
6127.84, 0.0246070
6135.09, 0.0245410
6142.36, 0.0245410
6149.65, 0.0246070
6156.95, 0.0247410
6164.27, 0.0247410
6171.61, 0.0247410
6178.97, 0.0252070
6186.34, 0.0256740
6193.73, 0.0256740
6201.14, 0.0259410
6208.57, 0.0263410
6216.01, 0.0268750
6223.47, 0.0274080
6230.95, 0.0279420
6238.45, 0.0286080
6245.97, 0.0294090
6253.5, 0.0302090
6261.06, 0.0310760
6268.63, 0.0319430
6276.21, 0.0329430
6283.82, 0.0340770
6291.45, 0.0352100
6299.1, 0.0364110
6306.76, 0.0377440
6314.44, 0.0390780
6322.14, 0.0404790
6329.86, 0.0419460
6337.6, 0.0438130
6345.35, 0.0457470
6353.13, 0.0468800
6360.92, 0.0483470
6368.74, 0.0502150
6376.57, 0.0516150
6384.43, 0.0528150
6392.3, 0.0540820
6400.19, 0.0552160
6408.1, 0.0572170
6416.03, 0.0582840
6423.98, 0.0575500
6431.95, 0.0573500
6439.94, 0.0572170
6447.95, 0.0571500
6455.98, 0.0570170
6464.03, 0.0568830
6472.1, 0.0570830
6480.19, 0.0572170
6488.31, 0.0574830
6496.44, 0.0569500
6504.59, 0.0555500
6512.76, 0.0548160
6520.95, 0.0544830
6529.16, 0.0535490
6537.4, 0.0529490
6545.65, 0.0525490
6553.92, 0.0523490
6562.22, 0.0520150
6570.54, 0.0519490
6578.88, 0.0512150
6587.23, 0.0504150
6595.61, 0.0498150
6604.02, 0.0490140
6612.44, 0.0484140
6620.89, 0.0478140
6629.35, 0.0477470
6637.84, 0.0474810
6646.35, 0.0460130
6654.88, 0.0448800
6663.44, 0.0442130
6672.01, 0.0437460
6680.61, 0.0433460
6689.23, 0.0424790
6697.88, 0.0416790
6706.54, 0.0412790
6715.23, 0.0408120
6723.94, 0.0401450
6732.67, 0.0394120
6741.42, 0.0388780
6750.2, 0.0384110
6759.0, 0.0378780
6767.82, 0.0376110
6776.67, 0.0372780
6785.54, 0.0370110
6794.44, 0.0364770
6803.35, 0.0357440
6812.29, 0.0353440
6821.26, 0.0351440
6830.24, 0.0346770
6839.25, 0.0340770
6848.29, 0.0337430
6857.35, 0.0339430
6866.43, 0.0336100
6875.54, 0.0328100
6884.67, 0.0326760
6893.82, 0.0328100
6903.0, 0.0331430
6912.2, 0.0330760
6921.43, 0.0328100
6930.69, 0.0325430
6939.96, 0.0322090
6949.27, 0.0320090
6958.59, 0.0319430
6967.95, 0.0315430
6977.33, 0.0312090
6986.73, 0.0311420
6996.16, 0.0310090
7005.61, 0.0310090
7015.09, 0.0312760
7024.6, 0.0315430
7034.13, 0.0318090
7043.69, 0.0321430
7053.27, 0.0319430
7062.88, 0.0317430
7072.52, 0.0316090
7082.18, 0.0313420
7091.87, 0.0309420
7101.58, 0.0304760
7111.32, 0.0301420
7121.09, 0.0297420
7130.88, 0.0292090
7140.71, 0.0288080
7150.56, 0.0285420
7160.43, 0.0283420
7170.33, 0.0281420
7180.27, 0.0278080
7190.23, 0.0276750
7200.21, 0.0276750
7210.23, 0.0276080
7220.27, 0.0273410
7230.34, 0.0272750
7240.44, 0.0272750
7250.56, 0.0271410
7260.72, 0.0271410
7270.9, 0.0270080
7281.12, 0.0269410
7291.36, 0.0268750
7301.63, 0.0268080
7311.93, 0.0267410
7322.25, 0.0267410
7332.61, 0.0267410
7343.0, 0.0266080
7353.41, 0.0264080
7363.86, 0.0263410
7374.33, 0.0263410
7384.83, 0.0263410
7395.37, 0.0262740
7405.93, 0.0262740
7416.53, 0.0262740
7427.15, 0.0262080
7437.81, 0.0260740
7448.5, 0.0261410
7459.22, 0.0262740
7469.96, 0.0262080
7480.74, 0.0262080
7491.55, 0.0260740
7502.39, 0.0261410
7513.27, 0.0261410
7524.17, 0.0261410
7535.11, 0.0260740
7546.08, 0.0260080
7557.08, 0.0261410
7568.11, 0.0262740
7579.17, 0.0262740
7590.27, 0.0263410
7601.4, 0.0264740
7612.56, 0.0265410
7623.76, 0.0265410
7634.98, 0.0267410
7646.24, 0.0270750
7657.54, 0.0271410
7668.87, 0.0272080
7680.23, 0.0274080
7691.62, 0.0276750
7703.05, 0.0278080
7714.51, 0.0278750
7726.01, 0.0280080
7737.54, 0.0282080
7749.11, 0.0284080
7760.71, 0.0286750
7772.35, 0.0288750
7784.02, 0.0290080
7795.72, 0.0291420
7807.46, 0.0293420
7819.23, 0.0295420
7831.04, 0.0297420
7842.89, 0.0300090
7854.77, 0.0304090
7866.69, 0.0309420
7878.65, 0.0316090
7890.64, 0.0321430
7902.67, 0.0326760
7914.74, 0.0332100
7926.84, 0.0339430
7938.98, 0.0346770
7951.16, 0.0354770
7963.37, 0.0363440
7975.62, 0.0371440
7987.91, 0.0378110
8000.24, 0.0384780
8012.6, 0.0392110
8025.01, 0.0398780
8037.45, 0.0406120
8049.93, 0.0412790
8062.45, 0.0420790
8075.01, 0.0429460
8087.61, 0.0438130
8100.24, 0.0445460
8112.91, 0.0454130
8125.63, 0.0460800
8138.39, 0.0466800
8151.18, 0.0475470
8164.02, 0.0482140
8176.9, 0.0486140
8189.81, 0.0488810
8202.77, 0.0489480
8215.77, 0.0490140
8228.82, 0.0490140
8241.9, 0.0488140
8255.02, 0.0487480
8268.19, 0.0485480
8281.39, 0.0482810
8294.65, 0.0479470
8307.94, 0.0475470
8321.28, 0.0473470
8334.66, 0.0472140
8348.08, 0.0468800
8361.54, 0.0466800
8375.05, 0.0465470
8388.6, 0.0464140
8402.2, 0.0463470
8415.84, 0.0462140
8429.52, 0.0461470
8443.25, 0.0459470
8457.02, 0.0458130
8470.84, 0.0457470
8484.7, 0.0457470
8498.61, 0.0458130
8512.57, 0.0457470
8526.57, 0.0454800
8540.62, 0.0452800
8554.71, 0.0448800
8568.85, 0.0442130
8583.04, 0.0429460
8597.27, 0.0410120
8611.55, 0.0389450
8625.88, 0.0382110
8640.26, 0.0394120
8654.68, 0.0419460
8669.16, 0.0444130
8683.68, 0.0462800
8698.25, 0.0477470
8712.87, 0.0490810
8727.53, 0.0503480
8742.25, 0.0514820
8757.02, 0.0526150
8771.83, 0.0538160
8786.7, 0.0549490
8801.62, 0.0560830
8816.59, 0.0572170
8831.61, 0.0583500
8846.68, 0.0593510
8861.8, 0.0602840
8876.97, 0.0610180
8892.2, 0.0615510
8907.48, 0.0618850
8922.81, 0.0618850
8938.2, 0.0617510
8953.63, 0.0615510
8969.13, 0.0614180
8984.67, 0.0612850
9000.27, 0.0610850
9015.92, 0.0610850
9031.63, 0.0609510
9047.39, 0.0606840
9063.21, 0.0604840
9079.08, 0.0603510
9095.01, 0.0601510
9111.0, 0.0596840
9127.04, 0.0593510
9143.13, 0.0588840
9159.28, 0.0582840
9175.49, 0.0578840
9191.76, 0.0578170
9208.09, 0.0574830
9224.47, 0.0573500
9240.92, 0.0575500
9257.42, 0.0577500
9273.98, 0.0578840
9290.6, 0.0579500
9307.28, 0.0582840
9324.02, 0.0586840
9340.82, 0.0591510
9357.68, 0.0597510
9374.6, 0.0603510
9391.58, 0.0609510
9408.62, 0.0614850
9425.73, 0.0618180
9442.9, 0.0623520
9460.13, 0.0626180
9477.42, 0.0624850
9494.78, 0.0624850
9512.2, 0.0624180
9529.69, 0.0622180
9547.24, 0.0618180
9564.86, 0.0614180
9582.54, 0.0611510
9600.28, 0.0606840
9618.1, 0.0598170
9635.97, 0.0593510
9653.92, 0.0588840
9671.93, 0.0579500
9690.01, 0.0570170
9708.16, 0.0560830
9726.37, 0.0548830
9744.65, 0.0538160
9763.0, 0.0530820
9781.43, 0.0521490
9799.92, 0.0510820
9818.48, 0.0501480
9837.1, 0.0492810
9855.8, 0.0482810
9874.58, 0.0474140
9893.42, 0.0466800
9912.34, 0.0462140
9931.33, 0.0456800
9950.39, 0.0449460
9969.52, 0.0442130
9988.74, 0.0436790
10008.0, 0.0429460
10027.4, 0.0422120
10046.8, 0.0417460
10066.3, 0.0412790
10085.9, 0.0406790
10105.6, 0.0400780
10125.3, 0.0395450
10145.1, 0.0390110
10165.0, 0.0384780
10185.0, 0.0380780
10205.0, 0.0376110
10225.2, 0.0373440
10245.4, 0.0369440
10265.7, 0.0364110
10286.0, 0.0360110
10306.5, 0.0357440
10327.0, 0.0354100
10347.6, 0.0351440
10368.3, 0.0350100
10389.1, 0.0349440
10409.9, 0.0349440
10430.9, 0.0348100
10451.9, 0.0347430
10473.0, 0.0348770
10494.2, 0.0350100
10515.5, 0.0350770
10536.9, 0.0353440
10558.4, 0.0356100
10579.9, 0.0358770
10601.5, 0.0362110
10623.3, 0.0364110
10645.1, 0.0364770
10667.0, 0.0366770
10689.0, 0.0368110
10711.1, 0.0370110
10733.2, 0.0370110
10755.5, 0.0368770
10777.9, 0.0366770
10800.3, 0.0364110
10822.9, 0.0362110
10845.5, 0.0361440
10868.2, 0.0358770
10891.1, 0.0358100
10914.0, 0.0357440
10937.0, 0.0353440
10960.2, 0.0350100
10983.4, 0.0347430
11006.7, 0.0345430
11030.1, 0.0344100
11053.6, 0.0344100
11077.3, 0.0345430
11101.0, 0.0348770
11124.8, 0.0354770
11148.7, 0.0363440
11172.7, 0.0374780
11196.9, 0.0384780
11221.1, 0.0388780
11245.4, 0.0386780
11269.9, 0.0380110
11294.4, 0.0372110
11319.1, 0.0360110
11343.9, 0.0347430
11368.8, 0.0334760
11393.7, 0.0323430
11418.8, 0.0316090
11444.0, 0.0310760
11469.4, 0.0303420
11494.8, 0.0297420
11520.3, 0.0293420
11546.0, 0.0292750
11571.8, 0.0295420
11597.7, 0.0297420
11623.7, 0.0297420
11649.8, 0.0296750
11676.0, 0.0294090
11702.4, 0.0288080
11728.9, 0.0283420
11755.5, 0.0280080
11782.2, 0.0276080
11809.0, 0.0272080
11836.0, 0.0270750
11863.0, 0.0268080
11890.3, 0.0266740
11917.6, 0.0266080
11945.0, 0.0265410
11972.6, 0.0262740
12000.4, 0.0258740
12028.2, 0.0258740
12056.2, 0.0256740
12084.3, 0.0253410
12112.5, 0.0246740
12140.9, 0.0242740
12169.4, 0.0239400
12198.0, 0.0236070
12226.8, 0.0233400
12255.7, 0.0230730
12284.7, 0.0231400
12313.9, 0.0233400
12343.2, 0.0238070
12372.7, 0.0244740
12402.3, 0.0254070
12432.0, 0.0264080
12461.9, 0.0267410
12491.9, 0.0268750
12522.1, 0.0270080
12552.4, 0.0270080
12582.9, 0.0268080
12613.5, 0.0265410
12644.3, 0.0266080
12675.2, 0.0270750
12706.3, 0.0279420
12737.5, 0.0288080
12768.9, 0.0291420
12800.4, 0.0291420
12832.1, 0.0290080
12863.9, 0.0285420
12895.9, 0.0278080
12928.1, 0.0272750
12960.4, 0.0268750
12992.9, 0.0266080
13025.5, 0.0262080
13058.3, 0.0262080
13091.3, 0.0259410
13124.4, 0.0254070
13157.8, 0.0251410
13191.2, 0.0248740
13224.9, 0.0244740
13258.7, 0.0240740
13292.7, 0.0240070
13326.9, 0.0239400
13361.2, 0.0233400
13395.7, 0.0228070
13430.4, 0.0224070
13465.3, 0.0220060
13500.4, 0.0215400
13535.7, 0.0208060
13571.1, 0.0200060
13606.7, 0.0192720
13642.5, 0.0186720
13678.5, 0.0186050
13714.7, 0.0187390
13751.1, 0.0188720
13787.6, 0.0186720
13824.4, 0.0185390
13861.4, 0.0181390
13898.5, 0.0177390
13935.9, 0.0175380
13973.5, 0.0174720
14011.2, 0.0172050
14049.2, 0.0168720
14087.4, 0.0165380
14125.8, 0.0160710
14164.3, 0.0158710
14203.2, 0.0156710
14242.2, 0.0154710
14281.4, 0.0150710
14320.9, 0.0146710
14360.5, 0.0151380
14400.4, 0.0158710
14440.5, 0.0159380
14480.9, 0.0160050
14521.4, 0.0160710
14562.2, 0.0161380
14603.3, 0.0160710
14644.5, 0.0161380
14686.0, 0.0163380
14727.7, 0.0165380
14769.7, 0.0162710
14811.9, 0.0160710
14854.3, 0.0164710
14897.0, 0.0165380
14939.9, 0.0162050
14983.1, 0.0164050
15026.5, 0.0167380
15070.2, 0.0170050
15114.2, 0.0170720
15158.3, 0.0168720
15202.8, 0.0167380
15247.5, 0.0166050
15292.5, 0.0166050
15337.7, 0.0166720
15383.2, 0.0167380
15429.0, 0.0167380
15475.1, 0.0164050
15521.4, 0.0161380
15568.0, 0.0158710
15614.9, 0.0158710
15662.1, 0.0156710
15709.6, 0.0156050
15757.3, 0.0155380
15805.4, 0.0151380
15853.7, 0.0146040
15902.3, 0.0145380
15951.2, 0.0149380
16000.5, 0.0151380
16050.0, 0.0150040
16099.8, 0.0146040
16150.0, 0.0144710
16200.5, 0.0148040
16251.3, 0.0150710
16302.4, 0.0156050
16353.8, 0.0162050
16405.5, 0.0166050
16457.6, 0.0168050
16510.0, 0.0166720
16562.8, 0.0166720
16615.9, 0.0168050
16669.3, 0.0164710
16723.1, 0.0159380
16777.2, 0.0153380
16831.7, 0.0146040
16886.5, 0.0144040
16941.7, 0.0144040
16997.2, 0.0144710
17053.1, 0.0148710
17109.4, 0.0154050
17166.1, 0.0160710
17223.1, 0.0169380
17280.5, 0.0176720
17338.3, 0.0185390
17396.5, 0.0190720
17455.1, 0.0193390
17514.0, 0.0201390
17573.4, 0.0209390
17633.2, 0.0216730
17693.4, 0.0227400
17754.0, 0.0234070
17815.0, 0.0243400
17876.4, 0.0256070
17938.3, 0.0273410
18000.5, 0.0288750
18063.3, 0.0305420
18126.4, 0.0326760
18190.0, 0.0344770
18254.1, 0.0356770
18318.6, 0.0366770
18383.5, 0.0377440
18449.0, 0.0390110
18514.9, 0.0403450
18581.2, 0.0405450
18648.0, 0.0401450
18715.4, 0.0407450
18783.2, 0.0414120
18851.5, 0.0410120
18920.3, 0.0404120
18989.6, 0.0398120
19059.4, 0.0392780
19129.7, 0.0396780
19200.6, 0.0402780
19272.0, 0.0399450
19343.9, 0.0390110
19416.3, 0.0398120
19489.3, 0.0414790
19562.8, 0.0424790
19637.0, 0.0430130
19711.6, 0.0440800
19786.8, 0.0457470
19862.6, 0.0460800
19939.0, 0.0447230
20016.0, 0.0459770
20093.6, 0.0471270
20171.8, 0.0491310
20250.6, 0.0489910
20330.0, 0.0485040
20410.0, 0.0467440
20490.7, 0.0430680
20572.0, 0.0424060
20654.0, 0.0453500
20736.6, 0.0443740
20819.9, 0.0418310
20903.8, 0.0428940
20988.5, 0.0449670
21073.8, 0.0468660
21159.8, 0.0472320
21246.5, 0.0450540
21334.0, 0.0447050
21422.1, 0.0462730
21511.0, 0.0489390
21600.7, 0.0494620
21691.0, 0.0476850
21782.1, 0.0469700
21874.0, 0.0469360
21966.7, 0.0468140
22060.2, 0.0452280
22154.5, 0.0446010
22249.6, 0.0439040
22345.5, 0.0439040
22442.2, 0.0436080
22539.8, 0.0428940
22638.2, 0.0438690
22737.5, 0.0437820
22837.7, 0.0436430
22938.7, 0.0432250
23040.7, 0.0433640
23143.5, 0.0434680
23247.3, 0.0429460
23352.1, 0.0425970
23457.7, 0.0422660
23564.4, 0.0427370
23672.0, 0.0434340
23780.5, 0.0420920
23890.1, 0.0390430
24000.7, 0.0384510
24112.3, 0.0401410
24225.0, 0.0393740
24338.7, 0.0370400
24453.5, 0.0373530
24569.4, 0.0378240
24686.4, 0.0367960
24804.5, 0.0357500
24923.8, 0.0383810
25044.2, 0.0409420
25165.8, 0.0419350
25288.6, 0.0421790
25412.5, 0.0418660
25537.7, 0.0407330
25664.1, 0.0391480
25791.8, 0.0394960
25920.8, 0.0412380
26051.1, 0.0435900
26182.6, 0.0440960
26315.5, 0.0445840
26449.8, 0.0443920
26585.4, 0.0434510
26722.5, 0.0424930
26860.9, 0.0432940
27000.8, 0.0442520
27142.1, 0.0441480
27285.0, 0.0434340
27429.4, 0.0417790
27575.3, 0.0415520
27722.7, 0.0415000
27871.8, 0.0398970
28022.4, 0.0389040
28174.7, 0.0386770
28328.7, 0.0391650
28484.4, 0.0388860
28641.7, 0.0382240
28800.9, 0.0398620
28961.8, 0.0394790
29124.5, 0.0373010
29289.0, 0.0377020
29455.4, 0.0384160
29623.8, 0.0376150
29794.0, 0.0366390
29966.3, 0.0370570
30140.5, 0.0386770
30316.7, 0.0387990
30495.1, 0.0369870
30675.5, 0.0372310
30858.1, 0.0379280
31042.8, 0.0378240
31229.8, 0.0378240
31419.1, 0.0372490
31610.7, 0.0367260
31804.6, 0.0364300
32000.9, 0.0356630
32199.7, 0.0346010
32400.9, 0.0345830
32604.8, 0.0350540
32811.1, 0.0343920
33020.1, 0.0318830
33231.8, 0.0327540
33446.2, 0.0341820
33663.4, 0.0350880
33883.4, 0.0347400
34106.3, 0.0357330
34332.1, 0.0359250
34561.0, 0.0350710
34792.9, 0.0362380
35028.0, 0.0383810
35266.3, 0.0396010
35507.8, 0.0391830
35752.7, 0.0389390
36001.0, 0.0394610
36252.8, 0.0396010
36508.1, 0.0387120
36767.0, 0.0384680
37029.7, 0.0379980
37296.1, 0.0372140
37566.3, 0.0378590
37840.5, 0.0386950
38118.8, 0.0399490
38401.2, 0.0406290
38687.8, 0.0403670
38978.6, 0.0393920
39273.9, 0.0381200
39573.7, 0.0366040
39878.1, 0.0358550
40187.3, 0.0338340
40501.2, 0.0346880
40820.0, 0.0376490
41144.0, 0.0385550
41473.2, 0.0383640
41807.6, 0.0377020
42147.5, 0.0386250
42493.0, 0.0394610
42844.2, 0.0406290
43201.2, 0.0418130
43564.3, 0.0414300
43933.5, 0.0415690
44309.0, 0.0415520
44691.0, 0.0427890
45079.6, 0.0420220
45475.0, 0.0402800
45877.5, 0.0394270
46287.1, 0.0402980
46704.2, 0.0400890
47128.7, 0.0393220
47561.1, 0.0383640
48001.5, 0.0365170
48450.1, 0.0370220
48907.2, 0.0385380
49373.0, 0.0387470
49847.7, 0.0410640
50331.5, 0.0413080
50825.0, 0.0406980
51328.2, 0.0407510
51841.5, 0.0422140
52365.1, 0.0435210
52899.4, 0.0426670
53444.8, 0.0427020
54001.5, 0.0454370
54570.1, 0.0474230
55150.6, 0.0469010
55743.6, 0.0456460
56349.5, 0.0452630
56968.7, 0.0488170
57601.7, 0.0499840
58248.9, 0.0490960
58910.9, 0.0473880
59588.1, 0.0503500
60281.0, 0.0517960
60990.2, 0.0518830
61716.3, 0.0535560
62459.8, 0.0549150
63221.6, 0.0521270
64002.1, 0.0509080
64802.1, 0.0497750
65622.1, 0.0480510
66463.4, 0.0421100
67326.6, 0.0403850
68212.4, 0.0433470
69121.9, 0.0475630
70056.0, 0.0482770
71015.7, 0.0427890
72002.0, 0.0396360
73016.3, 0.0391480
74059.4, 0.0400710
75132.7, 0.0394090
76237.6, 0.0359420
77375.5, 0.0349840
78547.9, 0.0392520
79756.3, 0.0425100
81002.5, 0.0433640
82288.5, 0.0435560
83615.7, 0.0449320
84986.5, 0.0475280
86402.9, 0.0464650
87867.4, 0.0435380
89382.4, 0.0436950
90950.5, 0.0411690
92574.6, 0.0409770
94257.2, 0.0425100
96002.7, 0.0377710
97814.1, 0.0390780
99695.1, 0.0458550
101650.0, 0.0494090
103683.0, 0.0484340
105799.0, 0.0478760
108003.0, 0.0506990
110301.0, 0.0565530
112699.0, 0.0526670
115204.0, 0.0537130
117822.0, 0.0620930
120562.0, 0.0661170
123433.0, 0.0693230
126443.0, 0.0753160
129604.0, 0.0739050
132926.0, 0.0641310
136424.0, 0.0597230
140111.0, 0.0700550
144003.0, 0.0836090
148118.0, 0.0792360
152474.0, 0.0774940
157095.0, 0.0870760
162004.0, 0.0919020
167231.0, 0.0986620
172805.0, 0.104307
178764.0, 0.106398
185148.0, 0.104115
192005.0, 0.102443
199390.0, 0.0956480
207366.0, 0.0880520
216006.0, 0.0759440
