Database of Origin, USGS Spectral Database
Sample Description, See USGS database for additional info
Date Added,2016-08-10 05:26:43.691070

Data ID,USGS_pro06          
Sample ID, prochlorite_smr14.18392
Mineral Name, prochlorite
Material Class,Phyllosilicate

Wavelength
1369.66, 0.173507
1370.02, 0.173566
1370.38, 0.173742
1370.74, 0.174389
1371.11, 0.174271
1371.47, 0.174153
1371.83, 0.174330
1372.19, 0.174506
1372.56, 0.174447
1372.92, 0.174624
1373.29, 0.174800
1373.65, 0.174918
1374.01, 0.174741
1374.38, 0.174624
1374.74, 0.174800
1375.11, 0.175270
1375.47, 0.175447
1375.84, 0.175623
1376.2, 0.176093
1376.57, 0.176563
1376.93, 0.176152
1377.3, 0.176034
1377.67, 0.176269
1378.03, 0.176387
1378.4, 0.176034
1378.76, 0.175976
1379.13, 0.176211
1379.5, 0.176740
1379.87, 0.177445
1380.23, 0.178327
1380.6, 0.178562
1380.97, 0.177739
1381.34, 0.177269
1381.7, 0.177445
1382.07, 0.178091
1382.44, 0.178562
1382.81, 0.178268
1383.18, 0.177974
1383.55, 0.178327
1383.92, 0.178444
1384.29, 0.178150
1384.66, 0.178327
1385.03, 0.178562
1385.4, 0.178268
1385.77, 0.178091
1386.14, 0.177680
1386.51, 0.177327
1386.88, 0.177621
1387.25, 0.177386
1387.62, 0.177151
1387.99, 0.177327
1388.36, 0.176916
1388.74, 0.176328
1389.11, 0.175564
1389.48, 0.175094
1389.85, 0.174859
1390.23, 0.174859
1390.6, 0.174682
1390.97, 0.174859
1391.35, 0.174389
1391.72, 0.174153
1392.09, 0.174624
1392.47, 0.174565
1392.84, 0.173977
1393.21, 0.173742
1393.59, 0.173918
1393.96, 0.173507
1394.34, 0.173448
1394.71, 0.173624
1395.09, 0.173507
1395.46, 0.173742
1395.84, 0.173977
1396.22, 0.173742
1396.59, 0.173272
1396.97, 0.173389
1397.35, 0.173860
1397.72, 0.173977
1398.1, 0.173742
1398.48, 0.174036
1398.85, 0.174565
1399.23, 0.174918
1399.61, 0.174918
1399.99, 0.174918
1400.37, 0.175388
1400.74, 0.175388
1401.12, 0.175329
1401.5, 0.175153
1401.88, 0.175094
1402.26, 0.175270
1402.64, 0.175623
1403.02, 0.175858
1403.4, 0.175917
1403.78, 0.175858
1404.16, 0.175740
1404.54, 0.176034
1404.92, 0.176446
1405.3, 0.176034
1405.68, 0.175623
1406.06, 0.175682
1406.44, 0.176152
1406.83, 0.176446
1407.21, 0.176857
1407.59, 0.177033
1407.97, 0.176975
1408.35, 0.177033
1408.74, 0.177680
1409.12, 0.178150
1409.5, 0.178033
1409.89, 0.178033
1410.27, 0.178385
1410.65, 0.178268
1411.04, 0.178327
1411.42, 0.178562
1411.81, 0.178856
1412.19, 0.179267
1412.58, 0.179502
1412.96, 0.179208
1413.35, 0.179032
1413.73, 0.179208
1414.12, 0.179620
1414.5, 0.179914
1414.89, 0.180090
1415.28, 0.180207
1415.66, 0.180619
1416.05, 0.180913
1416.44, 0.180854
1416.82, 0.181207
1417.21, 0.181794
1417.6, 0.182147
1417.98, 0.182265
1418.37, 0.182265
1418.76, 0.182558
1419.15, 0.182558
1419.54, 0.182617
1419.93, 0.182911
1420.32, 0.183205
1420.71, 0.183205
1421.09, 0.183264
1421.48, 0.183558
1421.88, 0.183734
1422.27, 0.184028
1422.66, 0.184204
1423.05, 0.184145
1423.44, 0.183793
1423.83, 0.183910
1424.22, 0.184087
1424.61, 0.184028
1425.0, 0.184145
1425.39, 0.184145
1425.78, 0.184380
1426.18, 0.184792
1426.57, 0.185145
1426.96, 0.185262
1427.36, 0.185321
1427.75, 0.185321
1428.14, 0.185262
1428.54, 0.185086
1428.93, 0.184968
1429.32, 0.185086
1429.72, 0.185262
1430.11, 0.185674
1430.51, 0.185967
1430.9, 0.185791
1431.3, 0.185438
1431.69, 0.185674
1432.09, 0.186026
1432.48, 0.185791
1432.88, 0.185909
1433.28, 0.185967
1433.67, 0.185909
1434.07, 0.186026
1434.46, 0.186026
1434.86, 0.186026
1435.26, 0.186320
1435.66, 0.186614
1436.05, 0.186849
1436.45, 0.186555
1436.85, 0.186438
1437.25, 0.186320
1437.65, 0.186438
1438.05, 0.186908
1438.44, 0.187025
1438.84, 0.186732
1439.24, 0.186967
1439.64, 0.187261
1440.04, 0.187202
1440.44, 0.187378
1440.84, 0.187437
1441.24, 0.187437
1441.65, 0.187378
1442.05, 0.187437
1442.45, 0.187496
1442.85, 0.187319
1443.25, 0.187025
1443.65, 0.187613
1444.05, 0.188025
1444.46, 0.187907
1444.86, 0.187848
1445.26, 0.187848
1445.67, 0.188318
1446.07, 0.188554
1446.47, 0.188318
1446.88, 0.188142
1447.28, 0.188612
1447.68, 0.188906
1448.09, 0.188965
1448.49, 0.188554
1448.9, 0.188377
1449.3, 0.188495
1449.71, 0.188789
1450.11, 0.188965
1450.52, 0.189318
1450.93, 0.189259
1451.33, 0.189435
1451.74, 0.189788
1452.14, 0.189553
1452.55, 0.189494
1452.96, 0.189553
1453.36, 0.189847
1453.77, 0.190023
1454.18, 0.190082
1454.59, 0.190434
1455.0, 0.190611
1455.41, 0.190199
1455.81, 0.190317
1456.22, 0.190728
1456.63, 0.190963
1457.04, 0.190728
1457.45, 0.190846
1457.86, 0.191140
1458.27, 0.191257
1458.68, 0.191375
1459.09, 0.191551
1459.5, 0.191669
1459.91, 0.191786
1460.32, 0.191904
1460.74, 0.192021
1461.15, 0.192021
1461.56, 0.191845
1461.97, 0.191727
1462.39, 0.191904
1462.8, 0.192198
1463.21, 0.192256
1463.62, 0.192374
1464.04, 0.192609
1464.45, 0.192844
1464.86, 0.192962
1465.28, 0.193079
1465.69, 0.193314
1466.11, 0.193608
1466.52, 0.193550
1466.94, 0.193491
1467.35, 0.193491
1467.77, 0.193785
1468.18, 0.194079
1468.6, 0.193961
1469.02, 0.193785
1469.43, 0.193961
1469.85, 0.194372
1470.27, 0.194431
1470.68, 0.194314
1471.1, 0.194549
1471.52, 0.195019
1471.94, 0.195254
1472.35, 0.195430
1472.77, 0.195489
1473.19, 0.195254
1473.61, 0.195195
1474.03, 0.195372
1474.45, 0.196136
1474.87, 0.196547
1475.29, 0.196547
1475.71, 0.196665
1476.13, 0.196665
1476.55, 0.196606
1476.97, 0.196606
1477.39, 0.196312
1477.81, 0.196371
1478.23, 0.196488
1478.65, 0.196841
1479.07, 0.197194
1479.5, 0.197135
1479.92, 0.197605
1480.34, 0.197840
1480.76, 0.197664
1481.19, 0.197958
1481.61, 0.197958
1482.03, 0.197899
1482.46, 0.197840
1482.88, 0.198017
1483.31, 0.198134
1483.73, 0.198428
1484.16, 0.198252
1484.58, 0.198604
1485.01, 0.199251
1485.43, 0.199016
1485.86, 0.198663
1486.28, 0.198957
1486.71, 0.199368
1487.14, 0.199721
1487.56, 0.199780
1487.99, 0.199780
1488.42, 0.199721
1488.84, 0.199956
1489.27, 0.200132
1489.7, 0.200250
1490.13, 0.200368
1490.56, 0.200426
1490.98, 0.200309
1491.41, 0.200368
1491.84, 0.200544
1492.27, 0.200779
1492.7, 0.200955
1493.13, 0.201132
1493.56, 0.201132
1493.99, 0.201073
1494.42, 0.201190
1494.85, 0.201661
1495.29, 0.201837
1495.72, 0.201719
1496.15, 0.201484
1496.58, 0.201837
1497.01, 0.202248
1497.44, 0.202248
1497.88, 0.202248
1498.31, 0.202542
1498.74, 0.202777
1499.18, 0.203012
1499.61, 0.203248
1500.04, 0.203306
1500.48, 0.203130
1500.91, 0.203071
1501.35, 0.203189
1501.78, 0.203248
1502.22, 0.203424
1502.65, 0.203659
1503.09, 0.203835
1503.53, 0.203659
1503.96, 0.203600
1504.4, 0.204012
1504.83, 0.204012
1505.27, 0.204129
1505.71, 0.204423
1506.15, 0.204482
1506.58, 0.204599
1507.02, 0.204893
1507.46, 0.205246
1507.9, 0.205246
1508.34, 0.205070
1508.78, 0.205070
1509.21, 0.205305
1509.66, 0.205716
1510.09, 0.205893
1510.53, 0.205951
1510.97, 0.205834
1511.42, 0.205951
1511.86, 0.206128
1512.3, 0.206245
1512.74, 0.206363
1513.18, 0.206480
1513.62, 0.206539
1514.06, 0.206422
1514.51, 0.206304
1514.95, 0.206422
1515.39, 0.206539
1515.83, 0.206657
1516.28, 0.207009
1516.72, 0.207421
1517.16, 0.207362
1517.61, 0.207068
1518.05, 0.207009
1518.5, 0.207186
1518.94, 0.207538
1519.39, 0.207656
1519.83, 0.207715
1520.28, 0.208008
1520.73, 0.208126
1521.17, 0.208185
1521.62, 0.208244
1522.07, 0.208420
1522.51, 0.208714
1522.96, 0.208949
1523.41, 0.208714
1523.85, 0.208773
1524.3, 0.209125
1524.75, 0.209008
1525.2, 0.208890
1525.65, 0.209066
1526.1, 0.209360
1526.55, 0.209595
1527.0, 0.209713
1527.45, 0.209772
1527.9, 0.210007
1528.35, 0.210301
1528.8, 0.210301
1529.25, 0.210359
1529.7, 0.210595
1530.15, 0.210888
1530.6, 0.210888
1531.05, 0.210771
1531.51, 0.210771
1531.96, 0.210771
1532.41, 0.210888
1532.87, 0.211241
1533.32, 0.211417
1533.77, 0.211476
1534.23, 0.211653
1534.68, 0.211888
1535.14, 0.212005
1535.59, 0.212064
1536.05, 0.212299
1536.5, 0.212417
1536.96, 0.212534
1537.41, 0.212593
1537.87, 0.212887
1538.32, 0.212887
1538.78, 0.213063
1539.24, 0.213357
1539.7, 0.213475
1540.15, 0.213651
1540.61, 0.213710
1541.07, 0.213827
1541.53, 0.213886
1541.98, 0.213945
1542.44, 0.213886
1542.9, 0.213945
1543.36, 0.214533
1543.82, 0.214826
1544.28, 0.214709
1544.74, 0.214944
1545.2, 0.215003
1545.66, 0.215120
1546.12, 0.215414
1546.59, 0.215943
1547.05, 0.215826
1547.51, 0.215649
1547.97, 0.215826
1548.43, 0.216120
1548.9, 0.216296
1549.36, 0.216649
1549.82, 0.216766
1550.29, 0.217001
1550.75, 0.217119
1551.21, 0.216942
1551.68, 0.217060
1552.14, 0.217413
1552.61, 0.217824
1553.07, 0.217765
1553.54, 0.218118
1554.0, 0.218353
1554.47, 0.218235
1554.93, 0.218412
1555.4, 0.218588
1555.87, 0.218823
1556.34, 0.218941
1556.8, 0.219176
1557.27, 0.219117
1557.74, 0.219058
1558.21, 0.219058
1558.68, 0.219352
1559.14, 0.219940
1559.61, 0.220058
1560.08, 0.219999
1560.55, 0.220234
1561.02, 0.220058
1561.49, 0.220234
1561.96, 0.220469
1562.43, 0.220763
1562.9, 0.221057
1563.38, 0.221233
1563.85, 0.221233
1564.32, 0.221174
1564.79, 0.221409
1565.26, 0.221762
1565.74, 0.221880
1566.21, 0.222056
1566.68, 0.222115
1567.16, 0.222291
1567.63, 0.222409
1568.1, 0.222585
1568.58, 0.222702
1569.05, 0.222996
1569.53, 0.223290
1570.0, 0.223408
1570.48, 0.223408
1570.96, 0.223584
1571.43, 0.223878
1571.91, 0.223996
1572.39, 0.224172
1572.86, 0.224583
1573.34, 0.224995
1573.82, 0.224936
1574.3, 0.224760
1574.77, 0.224877
1575.25, 0.224936
1575.73, 0.224936
1576.21, 0.225054
1576.69, 0.225171
1577.17, 0.225406
1577.65, 0.225700
1578.13, 0.225818
1578.61, 0.225759
1579.09, 0.225994
1579.57, 0.226464
1580.05, 0.226758
1580.54, 0.226934
1581.02, 0.226993
1581.5, 0.227052
1581.98, 0.226993
1582.47, 0.227169
1582.95, 0.227463
1583.43, 0.227640
1583.92, 0.227757
1584.4, 0.227934
1584.88, 0.227934
1585.37, 0.228169
1585.85, 0.228345
1586.34, 0.228463
1586.82, 0.228756
1587.31, 0.228992
1587.8, 0.228933
1588.28, 0.229050
1588.77, 0.229579
1589.26, 0.229697
1589.74, 0.229697
1590.23, 0.229756
1590.72, 0.229756
1591.21, 0.229814
1591.7, 0.229932
1592.19, 0.230108
1592.67, 0.230637
1593.16, 0.230990
1593.65, 0.230931
1594.14, 0.231166
1594.63, 0.231401
1595.12, 0.231343
1595.61, 0.231401
1596.11, 0.231754
1596.6, 0.232048
1597.09, 0.232224
1597.58, 0.232342
1598.08, 0.232459
1598.57, 0.232694
1599.06, 0.232812
1599.55, 0.232988
1600.05, 0.233223
1600.54, 0.233282
1601.04, 0.233341
1601.53, 0.233635
1602.03, 0.233694
1602.52, 0.233987
1603.02, 0.234223
1603.51, 0.234340
1604.01, 0.234693
1604.5, 0.234810
1605.0, 0.234928
1605.5, 0.234987
1606.0, 0.235163
1606.49, 0.235398
1606.99, 0.235516
1607.49, 0.235751
1607.99, 0.235810
1608.49, 0.235810
1608.99, 0.236221
1609.49, 0.236456
1609.99, 0.236574
1610.49, 0.236691
1610.99, 0.236868
1611.49, 0.237338
1611.99, 0.237573
1612.49, 0.237573
1612.99, 0.237690
1613.49, 0.238043
1614.0, 0.238161
1614.5, 0.238043
1615.0, 0.237984
1615.51, 0.238278
1616.01, 0.238690
1616.51, 0.238748
1617.02, 0.238807
1617.52, 0.238983
1618.03, 0.239101
1618.53, 0.239395
1619.04, 0.239806
1619.54, 0.239806
1620.05, 0.239983
1620.55, 0.240453
1621.06, 0.240512
1621.57, 0.240747
1622.08, 0.241041
1622.58, 0.241158
1623.09, 0.241158
1623.6, 0.241158
1624.11, 0.241217
1624.62, 0.241276
1625.13, 0.241334
1625.64, 0.241805
1626.15, 0.242099
1626.66, 0.242157
1627.17, 0.242451
1627.68, 0.242804
1628.19, 0.242921
1628.7, 0.243157
1629.21, 0.243333
1629.72, 0.243274
1630.24, 0.243450
1630.75, 0.243803
1631.26, 0.244038
1631.78, 0.244156
1632.29, 0.244332
1632.8, 0.244391
1633.32, 0.244450
1633.83, 0.244743
1634.35, 0.245214
1634.86, 0.245390
1635.38, 0.245390
1635.9, 0.245272
1636.41, 0.245390
1636.93, 0.245625
1637.45, 0.246037
1637.96, 0.246272
1638.48, 0.246448
1639.0, 0.246624
1639.52, 0.246507
1640.04, 0.246507
1640.56, 0.246859
1641.08, 0.247271
1641.59, 0.247506
1642.11, 0.247624
1642.63, 0.247565
1643.16, 0.247565
1643.68, 0.247741
1644.2, 0.247800
1644.72, 0.247859
1645.24, 0.248035
1645.76, 0.248388
1646.29, 0.248505
1646.81, 0.248623
1647.33, 0.248682
1647.86, 0.248917
1648.38, 0.249269
1648.9, 0.249387
1649.43, 0.249504
1649.95, 0.249563
1650.48, 0.249446
1651.0, 0.249739
1651.53, 0.249857
1652.06, 0.249857
1652.58, 0.250151
1653.11, 0.250445
1653.64, 0.250621
1654.17, 0.250915
1654.69, 0.251033
1655.22, 0.251091
1655.75, 0.251385
1656.28, 0.251444
1656.81, 0.251385
1657.34, 0.251444
1657.87, 0.251855
1658.4, 0.252384
1658.93, 0.252502
1659.46, 0.252384
1659.99, 0.252384
1660.52, 0.252443
1661.05, 0.252443
1661.59, 0.252855
1662.12, 0.253090
1662.65, 0.252972
1663.19, 0.253031
1663.72, 0.253325
1664.26, 0.253736
1664.79, 0.253795
1665.32, 0.253795
1665.86, 0.254089
1666.39, 0.254324
1666.93, 0.254383
1667.47, 0.254383
1668.0, 0.254735
1668.54, 0.254912
1669.08, 0.254912
1669.61, 0.255206
1670.15, 0.255382
1670.69, 0.255676
1671.23, 0.255852
1671.77, 0.255911
1672.31, 0.256087
1672.85, 0.256087
1673.39, 0.256264
1673.93, 0.256616
1674.47, 0.256910
1675.01, 0.257028
1675.55, 0.257145
1676.09, 0.257322
1676.64, 0.257557
1677.18, 0.257851
1677.72, 0.257851
1678.26, 0.257968
1678.81, 0.258027
1679.35, 0.258144
1679.89, 0.258262
1680.44, 0.258673
1680.98, 0.259085
1681.53, 0.259026
1682.07, 0.259144
1682.62, 0.259202
1683.17, 0.259496
1683.71, 0.259731
1684.26, 0.259673
1684.81, 0.259614
1685.36, 0.260025
1685.9, 0.260437
1686.45, 0.260613
1687.0, 0.260907
1687.55, 0.260789
1688.1, 0.260672
1688.65, 0.260731
1689.2, 0.261083
1689.75, 0.261436
1690.3, 0.261495
1690.85, 0.261495
1691.41, 0.261730
1691.96, 0.262024
1692.51, 0.262200
1693.06, 0.262611
1693.61, 0.262729
1694.17, 0.262670
1694.72, 0.262788
1695.28, 0.263082
1695.83, 0.263317
1696.39, 0.263376
1696.94, 0.263434
1697.5, 0.263611
1698.05, 0.263846
1698.61, 0.263963
1699.17, 0.264257
1699.72, 0.264375
1700.28, 0.264316
1700.84, 0.264551
1701.4, 0.264492
1701.95, 0.264492
1702.51, 0.264727
1703.07, 0.265021
1703.63, 0.265080
1704.19, 0.265315
1704.75, 0.265668
1705.31, 0.265668
1705.88, 0.265727
1706.44, 0.265785
1707.0, 0.266020
1707.56, 0.266197
1708.12, 0.266079
1708.69, 0.266256
1709.25, 0.266608
1709.81, 0.266785
1710.38, 0.266902
1710.94, 0.267078
1711.51, 0.267313
1712.07, 0.267372
1712.64, 0.267255
1713.2, 0.267372
1713.77, 0.267666
1714.34, 0.267960
1714.9, 0.268019
1715.47, 0.268136
1716.04, 0.268313
1716.61, 0.268548
1717.18, 0.268665
1717.74, 0.268607
1718.31, 0.268607
1718.88, 0.268665
1719.45, 0.269018
1720.02, 0.269077
1720.59, 0.269077
1721.17, 0.269312
1721.74, 0.269547
1722.31, 0.269782
1722.88, 0.269900
1723.45, 0.269900
1724.03, 0.269958
1724.6, 0.270252
1725.18, 0.270546
1725.75, 0.270487
1726.33, 0.270840
1726.9, 0.270899
1727.48, 0.270899
1728.05, 0.270958
1728.63, 0.271193
1729.2, 0.271369
1729.78, 0.271428
1730.36, 0.271663
1730.94, 0.271839
1731.51, 0.272016
1732.09, 0.272368
1732.67, 0.272309
1733.25, 0.272251
1733.83, 0.272545
1734.41, 0.272662
1734.99, 0.272780
1735.57, 0.273132
1736.15, 0.273309
1736.73, 0.273426
1737.32, 0.273544
1737.9, 0.273367
1738.48, 0.273074
1739.07, 0.273367
1739.65, 0.273896
1740.23, 0.274073
1740.82, 0.274132
1741.4, 0.274132
1741.99, 0.274132
1742.57, 0.274425
1743.16, 0.274837
1743.74, 0.275013
1744.33, 0.275189
1744.92, 0.275366
1745.51, 0.275542
1746.09, 0.275660
1746.68, 0.275777
1747.27, 0.275836
1747.86, 0.276012
1748.45, 0.276071
1749.04, 0.276247
1749.63, 0.276247
1750.22, 0.276365
1750.81, 0.276365
1751.4, 0.276541
1751.99, 0.276894
1752.59, 0.277012
1753.18, 0.277188
1753.77, 0.277423
1754.37, 0.277364
1754.96, 0.277305
1755.56, 0.277541
1756.15, 0.277893
1756.74, 0.278128
1757.34, 0.278246
1757.94, 0.278246
1758.53, 0.278422
1759.13, 0.278363
1759.73, 0.278481
1760.32, 0.278657
1760.92, 0.278834
1761.52, 0.278951
1762.12, 0.279010
1762.72, 0.279245
1763.32, 0.279598
1763.92, 0.279598
1764.52, 0.279892
1765.12, 0.280127
1765.72, 0.280185
1766.32, 0.280185
1766.92, 0.280421
1767.53, 0.280714
1768.13, 0.280891
1768.73, 0.281185
1769.34, 0.281185
1769.94, 0.281008
1770.55, 0.281302
1771.15, 0.281537
1771.76, 0.281479
1772.36, 0.281714
1772.97, 0.282007
1773.57, 0.282066
1774.18, 0.282184
1774.79, 0.282243
1775.4, 0.282419
1776.0, 0.282478
1776.61, 0.282654
1777.22, 0.282772
1777.83, 0.282772
1778.44, 0.282830
1779.05, 0.282948
1779.66, 0.283124
1780.27, 0.283418
1780.88, 0.283653
1781.5, 0.283888
1782.11, 0.283888
1782.72, 0.283947
1783.33, 0.283947
1783.95, 0.284006
1784.56, 0.284300
1785.18, 0.284476
1785.79, 0.284476
1786.41, 0.284711
1787.02, 0.284946
1787.64, 0.284946
1788.26, 0.284946
1788.87, 0.285123
1789.49, 0.285240
1790.11, 0.285299
1790.73, 0.285299
1791.35, 0.285417
1791.96, 0.285769
1792.58, 0.285828
1793.21, 0.285946
1793.83, 0.286063
1794.45, 0.286063
1795.07, 0.286063
1795.69, 0.286122
1796.31, 0.286416
1796.93, 0.286592
1797.56, 0.286651
1798.18, 0.286827
1798.8, 0.287062
1799.43, 0.287062
1800.05, 0.287062
1800.68, 0.287180
1801.3, 0.287239
1801.93, 0.287297
1802.56, 0.287356
1803.18, 0.287415
1803.81, 0.287650
1804.44, 0.287591
1805.07, 0.287650
1805.7, 0.288120
1806.33, 0.288179
1806.95, 0.288003
1807.58, 0.288355
1808.22, 0.288649
1808.85, 0.288767
1809.48, 0.288826
1810.11, 0.288767
1810.74, 0.288826
1811.38, 0.288943
1812.01, 0.289061
1812.64, 0.289296
1813.28, 0.289472
1813.91, 0.289590
1814.55, 0.289648
1815.18, 0.289766
1815.82, 0.289766
1816.45, 0.289942
1817.09, 0.290001
1817.73, 0.289942
1818.36, 0.290001
1819.0, 0.290236
1819.64, 0.290706
1820.28, 0.291294
1820.92, 0.291059
1821.56, 0.291235
1822.2, 0.291353
1822.84, 0.291059
1823.48, 0.291000
1824.12, 0.291235
1824.76, 0.291353
1825.41, 0.291882
1826.05, 0.292705
1826.69, 0.292235
1827.34, 0.291764
1827.98, 0.291999
1828.63, 0.292235
1829.27, 0.292470
1829.92, 0.292705
1830.56, 0.293175
1831.21, 0.293234
1831.86, 0.292764
1832.5, 0.292881
1833.15, 0.292822
1833.8, 0.292940
1834.45, 0.293645
1835.1, 0.293880
1835.75, 0.294350
1836.4, 0.294468
1837.05, 0.294586
1837.7, 0.294762
1838.35, 0.294057
1839.01, 0.294468
1839.66, 0.295291
1840.31, 0.294938
1840.96, 0.294938
1841.62, 0.295879
1842.27, 0.295526
1842.93, 0.294703
1843.58, 0.294586
1844.24, 0.294468
1844.9, 0.294409
1845.55, 0.294703
1846.21, 0.295702
1846.87, 0.296819
1847.53, 0.296760
1848.18, 0.296525
1848.84, 0.295879
1849.5, 0.295761
1850.16, 0.295996
1850.82, 0.295820
1851.48, 0.295585
1852.14, 0.296055
1852.81, 0.296643
1853.47, 0.297466
1854.13, 0.297289
1854.8, 0.296408
1855.46, 0.296290
1856.12, 0.296819
1856.79, 0.296937
1857.45, 0.296584
1858.12, 0.296466
1858.79, 0.296995
1859.45, 0.298171
1860.12, 0.297877
1860.79, 0.297172
1861.46, 0.296760
1862.12, 0.296643
1862.79, 0.296760
1863.46, 0.297113
1864.13, 0.297231
1864.8, 0.297113
1865.48, 0.296995
1866.15, 0.297113
1866.82, 0.297818
1867.49, 0.298994
1868.16, 0.298641
1868.84, 0.297760
1869.51, 0.297995
1870.19, 0.299111
1870.86, 0.299875
1871.54, 0.298641
1872.21, 0.298700
1872.89, 0.299699
1873.56, 0.299053
1874.24, 0.298288
1874.92, 0.298465
1875.6, 0.298582
1876.28, 0.298759
1876.96, 0.298994
1877.64, 0.298582
1878.32, 0.298465
1879.0, 0.298288
1879.68, 0.298171
1880.36, 0.298288
1881.04, 0.298465
1881.73, 0.298524
1882.41, 0.298406
1883.09, 0.298700
1883.78, 0.299405
1884.46, 0.299229
1885.15, 0.298994
1885.83, 0.299053
1886.52, 0.299288
1887.21, 0.299229
1887.89, 0.299405
1888.58, 0.299640
1889.27, 0.300169
1889.96, 0.300816
1890.65, 0.300463
1891.34, 0.300581
1892.03, 0.300816
1892.72, 0.300581
1893.41, 0.300757
1894.1, 0.300875
1894.79, 0.301051
1895.49, 0.301169
1896.18, 0.300992
1896.87, 0.301169
1897.57, 0.301874
1898.26, 0.302344
1898.96, 0.303226
1899.65, 0.303578
1900.35, 0.303049
1901.05, 0.302638
1901.74, 0.302814
1902.44, 0.303578
1903.14, 0.303578
1903.84, 0.303049
1904.54, 0.303931
1905.24, 0.304754
1905.94, 0.304519
1906.64, 0.304401
1907.34, 0.303990
1908.04, 0.303813
1908.75, 0.303990
1909.45, 0.304107
1910.15, 0.304401
1910.86, 0.304695
1911.56, 0.304754
1912.27, 0.304636
1912.97, 0.305518
1913.68, 0.305929
1914.39, 0.305459
1915.09, 0.305283
1915.8, 0.305342
1916.51, 0.305342
1917.22, 0.305165
1917.93, 0.305283
1918.64, 0.305635
1919.35, 0.306635
1920.06, 0.307399
1920.77, 0.307281
1921.48, 0.306458
1922.19, 0.305929
1922.91, 0.306047
1923.62, 0.306752
1924.33, 0.306811
1925.05, 0.306517
1925.76, 0.306517
1926.48, 0.306811
1927.19, 0.307164
1927.91, 0.307458
1928.63, 0.307516
1929.35, 0.307281
1930.07, 0.307399
1930.78, 0.307399
1931.5, 0.307399
1932.22, 0.307693
1932.94, 0.307869
1933.66, 0.307987
1934.39, 0.307751
1935.11, 0.307575
1935.83, 0.308045
1936.55, 0.308104
1937.28, 0.308045
1938.0, 0.308045
1938.73, 0.308163
1939.45, 0.308280
1940.18, 0.308280
1940.9, 0.308280
1941.63, 0.308457
1942.36, 0.308574
1943.09, 0.308457
1943.81, 0.308339
1944.54, 0.308457
1945.27, 0.308339
1946.0, 0.308163
1946.73, 0.308163
1947.47, 0.308280
1948.2, 0.308398
1948.93, 0.308398
1949.66, 0.308516
1950.4, 0.308574
1951.13, 0.308516
1951.86, 0.308280
1952.6, 0.308222
1953.34, 0.308398
1954.07, 0.308398
1954.81, 0.308222
1955.55, 0.308280
1956.29, 0.308339
1957.02, 0.308457
1957.76, 0.308516
1958.5, 0.308398
1959.24, 0.308516
1959.98, 0.308516
1960.72, 0.308574
1961.47, 0.308633
1962.21, 0.308516
1962.95, 0.308516
1963.7, 0.308692
1964.44, 0.308927
1965.18, 0.309044
1965.93, 0.308927
1966.67, 0.308868
1967.42, 0.308868
1968.17, 0.308927
1968.92, 0.308809
1969.66, 0.308633
1970.41, 0.308633
1971.16, 0.308751
1971.91, 0.308868
1972.66, 0.308868
1973.41, 0.308986
1974.16, 0.308927
1974.92, 0.308692
1975.67, 0.308751
1976.42, 0.308516
1977.18, 0.308339
1977.93, 0.308339
1978.69, 0.308457
1979.44, 0.308398
1980.2, 0.308339
1980.95, 0.308398
1981.71, 0.308457
1982.47, 0.308222
1983.23, 0.307928
1983.99, 0.307869
1984.74, 0.308280
1985.51, 0.308457
1986.27, 0.308339
1987.03, 0.308163
1987.79, 0.308222
1988.55, 0.308222
1989.32, 0.308280
1990.08, 0.308339
1990.84, 0.308280
1991.61, 0.307987
1992.37, 0.307869
1993.14, 0.308045
1993.9, 0.308280
1994.67, 0.308398
1995.44, 0.308457
1996.21, 0.308809
1996.98, 0.308868
1997.75, 0.308574
1998.52, 0.308574
1999.29, 0.308809
2000.06, 0.308927
2000.83, 0.309103
2001.6, 0.309280
2002.38, 0.309280
2003.15, 0.309397
2003.93, 0.309515
2004.7, 0.309691
2005.48, 0.309867
2006.25, 0.310102
2007.03, 0.310161
2007.81, 0.310044
2008.58, 0.310220
2009.36, 0.310631
2010.14, 0.310867
2010.92, 0.311102
2011.7, 0.311219
2012.48, 0.311337
2013.26, 0.311454
2014.05, 0.311631
2014.83, 0.311983
2015.61, 0.312277
2016.4, 0.312571
2017.18, 0.312924
2017.97, 0.313041
2018.75, 0.313276
2019.54, 0.313453
2020.32, 0.313747
2021.11, 0.314040
2021.9, 0.314452
2022.69, 0.315040
2023.48, 0.315040
2024.27, 0.315216
2025.06, 0.315627
2025.85, 0.315804
2026.64, 0.315980
2027.44, 0.316391
2028.23, 0.316627
2029.02, 0.317097
2029.82, 0.317273
2030.61, 0.317626
2031.41, 0.318096
2032.2, 0.318566
2033.0, 0.318684
2033.8, 0.318507
2034.6, 0.318743
2035.4, 0.318919
2036.2, 0.319036
2037.0, 0.319389
2037.8, 0.319683
2038.6, 0.319977
2039.4, 0.320271
2040.2, 0.320682
2041.01, 0.320976
2041.81, 0.321094
2042.61, 0.321211
2043.42, 0.321446
2044.22, 0.321681
2045.03, 0.321740
2045.84, 0.321858
2046.65, 0.322034
2047.46, 0.322328
2048.26, 0.322445
2049.07, 0.322563
2049.88, 0.322622
2050.69, 0.322857
2051.51, 0.323210
2052.32, 0.323445
2053.13, 0.323503
2053.94, 0.323739
2054.76, 0.323797
2055.57, 0.323856
2056.39, 0.323797
2057.2, 0.323915
2058.02, 0.324150
2058.84, 0.324503
2059.66, 0.324620
2060.48, 0.324738
2061.29, 0.324914
2062.11, 0.324914
2062.94, 0.325090
2063.76, 0.325208
2064.58, 0.325267
2065.4, 0.325325
2066.22, 0.325502
2067.05, 0.325502
2067.87, 0.325502
2068.7, 0.325619
2069.52, 0.325737
2070.35, 0.325854
2071.18, 0.325972
2072.0, 0.325913
2072.83, 0.326148
2073.66, 0.326383
2074.49, 0.326383
2075.32, 0.326266
2076.15, 0.326325
2076.98, 0.326501
2077.82, 0.326442
2078.65, 0.326501
2079.48, 0.326736
2080.32, 0.326912
2081.15, 0.326912
2081.99, 0.326854
2082.83, 0.326912
2083.66, 0.327089
2084.5, 0.327206
2085.34, 0.327030
2086.18, 0.326912
2087.02, 0.327265
2087.86, 0.327441
2088.7, 0.327559
2089.54, 0.327618
2090.39, 0.327735
2091.23, 0.327794
2092.07, 0.327794
2092.92, 0.327735
2093.76, 0.327677
2094.61, 0.327735
2095.45, 0.327853
2096.3, 0.327677
2097.15, 0.327559
2098.0, 0.327618
2098.85, 0.327853
2099.7, 0.327853
2100.55, 0.327677
2101.4, 0.327677
2102.25, 0.327853
2103.1, 0.327970
2103.96, 0.327912
2104.81, 0.327735
2105.67, 0.327677
2106.52, 0.327677
2107.38, 0.327618
2108.24, 0.327559
2109.09, 0.327500
2109.95, 0.327677
2110.81, 0.327853
2111.67, 0.327735
2112.53, 0.327735
2113.39, 0.327735
2114.25, 0.327735
2115.12, 0.327853
2115.98, 0.328029
2116.84, 0.328147
2117.71, 0.328147
2118.58, 0.328205
2119.44, 0.328323
2120.31, 0.328323
2121.18, 0.328323
2122.04, 0.328382
2122.91, 0.328499
2123.78, 0.328558
2124.65, 0.328617
2125.52, 0.328793
2126.4, 0.329028
2127.27, 0.329146
2128.14, 0.329087
2129.02, 0.329205
2129.89, 0.329381
2130.77, 0.329381
2131.64, 0.329675
2132.52, 0.329851
2133.4, 0.329851
2134.27, 0.330028
2135.15, 0.330086
2136.03, 0.330086
2136.91, 0.330263
2137.79, 0.330557
2138.68, 0.330733
2139.56, 0.330792
2140.44, 0.330968
2141.33, 0.331027
2142.21, 0.331086
2143.1, 0.331203
2143.99, 0.331262
2144.87, 0.331321
2145.76, 0.331262
2146.65, 0.331438
2147.54, 0.331732
2148.43, 0.331615
2149.32, 0.331673
2150.21, 0.331615
2151.1, 0.331615
2151.99, 0.331615
2152.89, 0.331615
2153.78, 0.331615
2154.68, 0.331732
2155.57, 0.331908
2156.47, 0.332143
2157.37, 0.332026
2158.27, 0.331908
2159.16, 0.331850
2160.06, 0.331967
2160.96, 0.332085
2161.86, 0.332026
2162.77, 0.331967
2163.67, 0.332085
2164.57, 0.332143
2165.48, 0.332085
2166.38, 0.332143
2167.29, 0.332202
2168.2, 0.331846
2169.1, 0.331846
2170.01, 0.331490
2170.92, 0.331668
2171.83, 0.331965
2172.74, 0.331787
2173.65, 0.331668
2174.56, 0.331846
2175.47, 0.332024
2176.39, 0.332202
2177.3, 0.332440
2178.22, 0.332321
2179.13, 0.331727
2180.05, 0.331549
2180.96, 0.331846
2181.88, 0.332440
2182.8, 0.332084
2183.72, 0.331668
2184.64, 0.331490
2185.56, 0.331430
2186.48, 0.331490
2187.41, 0.331609
2188.33, 0.331549
2189.25, 0.331490
2190.18, 0.331846
2191.1, 0.331430
2192.03, 0.330599
2192.96, 0.330421
2193.89, 0.330480
2194.82, 0.330599
2195.74, 0.330302
2196.68, 0.330005
2197.61, 0.329887
2198.54, 0.329590
2199.47, 0.329412
2200.4, 0.329234
2201.34, 0.329055
2202.28, 0.328759
2203.21, 0.328818
2204.15, 0.329055
2205.08, 0.329174
2206.02, 0.328996
2206.96, 0.328699
2207.9, 0.328580
2208.84, 0.328699
2209.78, 0.328580
2210.73, 0.328165
2211.67, 0.327987
2212.61, 0.327809
2213.56, 0.327809
2214.5, 0.327571
2215.45, 0.326918
2216.4, 0.326621
2217.35, 0.326146
2218.3, 0.325849
2219.24, 0.325434
2220.2, 0.324899
2221.15, 0.324662
2222.1, 0.324246
2223.05, 0.324068
2224.0, 0.323712
2224.96, 0.322880
2225.91, 0.322168
2226.87, 0.321574
2227.83, 0.320862
2228.79, 0.320030
2229.74, 0.319259
2230.7, 0.318605
2231.66, 0.317655
2232.63, 0.316765
2233.59, 0.315577
2234.55, 0.314330
2235.51, 0.312905
2236.48, 0.311659
2237.44, 0.310115
2238.41, 0.307918
2239.38, 0.305840
2240.34, 0.304237
2241.31, 0.302218
2242.28, 0.300259
2243.25, 0.298002
2244.22, 0.296102
2245.19, 0.294084
2246.17, 0.292421
2247.14, 0.290937
2248.12, 0.289512
2249.09, 0.288087
2250.07, 0.287671
2251.04, 0.287315
2252.02, 0.286899
2253.0, 0.286662
2253.98, 0.286840
2254.96, 0.287196
2255.94, 0.287790
2256.92, 0.288324
2257.91, 0.288977
2258.89, 0.289809
2259.88, 0.290699
2260.86, 0.291471
2261.85, 0.292065
2262.83, 0.292718
2263.82, 0.293193
2264.81, 0.293312
2265.8, 0.293787
2266.79, 0.294499
2267.78, 0.295093
2268.78, 0.295449
2269.77, 0.295924
2270.76, 0.296162
2271.76, 0.296518
2272.75, 0.296577
2273.75, 0.296815
2274.75, 0.297112
2275.75, 0.297468
2276.75, 0.297527
2277.75, 0.297349
2278.75, 0.297112
2279.75, 0.297052
2280.75, 0.296637
2281.76, 0.296043
2282.76, 0.295390
2283.77, 0.294618
2284.77, 0.294143
2285.78, 0.293727
2286.79, 0.293074
2287.8, 0.292124
2288.81, 0.291352
2289.82, 0.290462
2290.83, 0.289393
2291.84, 0.288562
2292.86, 0.287552
2293.87, 0.286959
2294.89, 0.286365
2295.91, 0.285949
2296.92, 0.285296
2297.94, 0.284821
2298.96, 0.284465
2299.98, 0.284227
2301.0, 0.284109
2302.02, 0.283456
2303.04, 0.282802
2304.07, 0.282327
2305.09, 0.282031
2306.12, 0.281971
2307.15, 0.281674
2308.17, 0.281259
2309.2, 0.281081
2310.23, 0.280843
2311.26, 0.280427
2312.29, 0.280427
2313.32, 0.280131
2314.35, 0.279477
2315.39, 0.278765
2316.42, 0.278171
2317.46, 0.277874
2318.5, 0.277459
2319.53, 0.276924
2320.57, 0.276509
2321.61, 0.275974
2322.65, 0.275262
2323.69, 0.274609
2324.73, 0.274134
2325.78, 0.273481
2326.82, 0.272946
2327.86, 0.272412
2328.91, 0.271759
2329.96, 0.271106
2331.01, 0.270749
2332.05, 0.269918
2333.1, 0.269265
2334.15, 0.268671
2335.21, 0.268315
2336.26, 0.267959
2337.31, 0.267365
2338.36, 0.266652
2339.42, 0.266059
2340.48, 0.265881
2341.53, 0.265762
2342.59, 0.265643
2343.65, 0.265762
2344.71, 0.266237
2345.77, 0.266652
2346.83, 0.266771
2347.9, 0.266890
2348.96, 0.267306
2350.02, 0.268196
2351.09, 0.268731
2352.16, 0.269443
2353.23, 0.269977
2354.29, 0.270631
2355.36, 0.271581
2356.43, 0.272174
2357.51, 0.272649
2358.58, 0.273956
2359.65, 0.274906
2360.73, 0.275856
2361.8, 0.277043
2362.88, 0.277993
2363.96, 0.278943
2365.03, 0.280012
2366.11, 0.280784
2367.19, 0.281674
2368.27, 0.283396
2369.36, 0.285296
2370.44, 0.286365
2371.53, 0.286781
2372.61, 0.287493
2373.7, 0.288621
2374.78, 0.289452
2375.87, 0.290224
2376.96, 0.291234
2378.05, 0.292421
2379.14, 0.292896
2380.24, 0.293193
2381.33, 0.293965
2382.42, 0.294677
2383.52, 0.295627
2384.61, 0.296162
2385.71, 0.296637
2386.81, 0.297231
2387.91, 0.297646
2389.01, 0.298002
2390.11, 0.297884
2391.22, 0.298121
2392.32, 0.298537
2393.42, 0.298656
2394.53, 0.298715
2395.64, 0.298952
2396.74, 0.299368
2397.85, 0.300081
2398.96, 0.300318
2400.07, 0.300615
2401.18, 0.300615
2402.3, 0.300971
2403.41, 0.301268
2404.52, 0.301387
2405.64, 0.301684
2406.76, 0.302040
2407.88, 0.302277
2408.99, 0.302634
2410.11, 0.303346
2411.23, 0.303702
2412.36, 0.304059
2413.48, 0.304177
2414.6, 0.304118
2415.73, 0.304474
2416.85, 0.304712
2417.98, 0.304771
2419.11, 0.304712
2420.24, 0.304890
2421.37, 0.305187
2422.5, 0.305246
2423.64, 0.305424
2424.77, 0.305365
2425.9, 0.304830
2427.04, 0.304771
2428.18, 0.304652
2429.31, 0.304296
2430.45, 0.304059
2431.59, 0.303999
2432.73, 0.303762
2433.88, 0.303465
2435.02, 0.303584
2436.16, 0.303584
2437.31, 0.303287
2438.45, 0.302990
2439.6, 0.302277
2440.75, 0.302040
2441.9, 0.302218
2443.05, 0.301684
2444.2, 0.300971
2445.35, 0.301149
2446.51, 0.300971
2447.67, 0.300555
2448.82, 0.300199
2449.98, 0.299843
2451.14, 0.299487
2452.3, 0.299309
2453.46, 0.299130
2454.62, 0.298537
2455.78, 0.297884
2456.94, 0.297349
2458.11, 0.296934
2459.28, 0.296399
2460.44, 0.295746
2461.61, 0.295093
2462.78, 0.294618
2463.95, 0.294321
2465.12, 0.293905
2466.3, 0.293193
2467.47, 0.292540
2468.65, 0.291827
2469.82, 0.291412
2471.0, 0.291115
2472.18, 0.290640
2473.36, 0.290165
2474.54, 0.289690
2475.72, 0.289452
2476.9, 0.289452
2478.08, 0.289155
2479.27, 0.288681
2480.46, 0.288265
2481.64, 0.287909
2482.83, 0.287612
2484.02, 0.287315
2485.21, 0.287077
2486.4, 0.286899
2487.6, 0.286959
2488.79, 0.286959
2489.99, 0.286899
2491.18, 0.286365
2492.38, 0.286009
2493.58, 0.286246
2494.78, 0.286721
2495.98, 0.286721
2497.18, 0.286424
2498.39, 0.286246
2499.59, 0.286187
2500.8, 0.286127
2502.01, 0.286009
2503.21, 0.285771
2504.42, 0.285831
2505.63, 0.285831
2506.84, 0.285949
2508.06, 0.285890
2509.27, 0.285831
2510.49, 0.285652
2511.7, 0.285415
2512.92, 0.285177
2514.14, 0.285177
2515.36, 0.285059
2516.58, 0.285059
2517.8, 0.285177
2519.03, 0.284762
2520.25, 0.284881
2521.48, 0.285118
2522.7, 0.284940
2523.93, 0.284702
2525.16, 0.283990
2526.39, 0.283752
2527.62, 0.283812
2528.86, 0.283871
2530.09, 0.283456
2531.33, 0.283099
2532.56, 0.283099
2533.8, 0.283159
2535.04, 0.282802
2536.28, 0.282684
2537.52, 0.282565
2538.76, 0.282565
2540.01, 0.282090
2541.25, 0.281318
2542.5, 0.281259
2543.75, 0.281437
2544.99, 0.281259
2546.24, 0.281140
2547.49, 0.280784
2548.75, 0.280724
2550.0, 0.280487
2551.26, 0.280012
2552.51, 0.279656
2553.77, 0.279774
2555.03, 0.279774
2556.29, 0.279656
2557.55, 0.279477
2558.81, 0.279062
2560.08, 0.278587
2561.34, 0.278171
2562.61, 0.277696
2563.88, 0.277696
2565.14, 0.277934
2566.41, 0.278112
2567.68, 0.277815
2568.96, 0.277399
2570.23, 0.277340
2571.51, 0.277399
2572.78, 0.277043
2574.06, 0.276924
2575.34, 0.276568
2576.62, 0.276390
2577.9, 0.276627
2579.18, 0.276806
2580.47, 0.276627
2581.75, 0.276627
2583.04, 0.276093
2584.32, 0.276331
2585.61, 0.276331
2586.9, 0.276093
2588.2, 0.276212
2589.49, 0.276568
2590.78, 0.276924
2592.08, 0.276509
2593.37, 0.275440
2594.67, 0.275381
2595.97, 0.276568
2597.27, 0.277162
2598.57, 0.277162
2599.88, 0.277221
2601.18, 0.277102
2602.49, 0.276865
2603.79, 0.276568
2605.1, 0.276865
2606.41, 0.277102
2607.72, 0.277399
2609.03, 0.277815
2610.35, 0.278290
2611.66, 0.278409
2612.98, 0.278468
2614.3, 0.278290
2615.62, 0.277756
2616.94, 0.277993
2618.26, 0.278290
2619.58, 0.278349
2620.91, 0.278646
2622.23, 0.278943
2623.56, 0.279002
2624.89, 0.278587
2626.22, 0.278587
2627.55, 0.278884
2628.88, 0.278527
2630.21, 0.278290
2631.55, 0.278587
2632.89, 0.278587
2634.22, 0.278646
2635.56, 0.278527
2636.9, 0.278409
2638.25, 0.278409
2639.59, 0.278112
2640.93, 0.277696
2642.28, 0.277459
2643.63, 0.277221
2644.98, 0.277043
2646.33, 0.276746
2647.68, 0.276627
2649.03, 0.276271
2650.39, 0.275796
2651.74, 0.275143
2653.1, 0.274787
2654.46, 0.274549
2655.82, 0.274490
2657.18, 0.274371
2658.54, 0.273896
2659.9, 0.273481
2661.27, 0.273243
2662.64, 0.272590
2664.01, 0.271343
2665.38, 0.270690
2666.74, 0.270690
2668.12, 0.270215
2669.49, 0.269206
2670.87, 0.268909
2672.24, 0.268671
2673.62, 0.267959
2675.0, 0.266474
2676.38, 0.265109
2677.76, 0.264159
2679.15, 0.263506
2680.54, 0.263149
2681.92, 0.262021
2683.31, 0.260596
2684.7, 0.259052
2686.09, 0.257331
2687.48, 0.255668
2688.88, 0.253709
2690.27, 0.251215
2691.67, 0.248246
2693.07, 0.244446
2694.47, 0.240468
2695.87, 0.236134
2697.27, 0.231384
2698.67, 0.225921
2700.08, 0.220518
2701.49, 0.215353
2702.9, 0.211078
2704.31, 0.207456
2705.72, 0.203181
2707.13, 0.196353
2708.54, 0.186378
2709.96, 0.174206
2711.38, 0.161025
2712.8, 0.148496
2714.22, 0.137512
2715.64, 0.127834
2717.06, 0.119997
2718.49, 0.114297
2719.91, 0.109903
2721.34, 0.106222
2722.77, 0.103728
2724.2, 0.102362
2725.63, 0.101709
2727.07, 0.101234
2728.5, 0.100997
2729.94, 0.100997
2731.38, 0.101115
2732.82, 0.101175
2734.26, 0.101353
2735.7, 0.101887
2737.15, 0.101947
2738.59, 0.101650
2740.04, 0.101353
2741.49, 0.101175
2742.94, 0.100997
2744.39, 0.100581
2745.84, 0.0998680
2747.3, 0.0992150
2748.76, 0.0988000
2750.21, 0.0981470
2751.67, 0.0974930
2753.14, 0.0967220
2754.6, 0.0957720
2756.06, 0.0950000
2757.53, 0.0943470
2759.0, 0.0939310
2760.46, 0.0935150
2761.94, 0.0932780
2763.41, 0.0933970
2764.88, 0.0932190
2766.36, 0.0928620
2767.83, 0.0917340
2769.31, 0.0899530
2770.79, 0.0877560
2772.27, 0.0851440
2773.76, 0.0824120
2775.24, 0.0795030
2776.73, 0.0762970
2778.22, 0.0732090
2779.71, 0.0704190
2781.2, 0.0681030
2782.69, 0.0656690
2784.18, 0.0632940
2785.68, 0.0612750
2787.18, 0.0594340
2788.68, 0.0580090
2790.18, 0.0567030
2791.68, 0.0552780
2793.19, 0.0539720
2794.69, 0.0527840
2796.2, 0.0519530
2797.71, 0.0511810
2799.22, 0.0504090
2800.73, 0.0496370
2802.24, 0.0488660
2803.76, 0.0483310
2805.28, 0.0479160
2806.8, 0.0476190
2808.32, 0.0473220
2809.84, 0.0468470
2811.36, 0.0466690
2812.89, 0.0463120
2814.42, 0.0461340
2815.94, 0.0463120
2817.48, 0.0463120
2819.01, 0.0461340
2820.54, 0.0461340
2822.08, 0.0464310
2823.61, 0.0466690
2825.15, 0.0469060
2826.69, 0.0469660
2828.23, 0.0469660
2829.78, 0.0472030
2831.32, 0.0476190
2832.87, 0.0480340
2834.42, 0.0483910
2835.97, 0.0488060
2837.52, 0.0491620
2839.08, 0.0494590
2840.63, 0.0496370
2842.19, 0.0498150
2843.75, 0.0502310
2845.31, 0.0508250
2846.87, 0.0512400
2848.44, 0.0515970
2850.0, 0.0520120
2851.57, 0.0524280
2853.14, 0.0526650
2854.71, 0.0527250
2856.28, 0.0529030
2857.86, 0.0530220
2859.43, 0.0532590
2861.01, 0.0536150
2862.59, 0.0537940
2864.17, 0.0539720
2865.76, 0.0539720
2867.34, 0.0538530
2868.93, 0.0536150
2870.52, 0.0534970
2872.11, 0.0533190
2873.7, 0.0530220
2875.29, 0.0526060
2876.89, 0.0521310
2878.49, 0.0516560
2880.08, 0.0512400
2881.69, 0.0507650
2883.29, 0.0501120
2884.89, 0.0493400
2886.5, 0.0488060
2888.11, 0.0483910
2889.72, 0.0479160
2891.33, 0.0473220
2892.94, 0.0466690
2894.56, 0.0458970
2896.17, 0.0453620
2897.79, 0.0447090
2899.42, 0.0442940
2901.04, 0.0441160
2902.66, 0.0437000
2904.29, 0.0431060
2905.92, 0.0426310
2907.55, 0.0423940
2909.18, 0.0422160
2910.81, 0.0418590
2912.45, 0.0415620
2914.08, 0.0411470
2915.72, 0.0409090
2917.36, 0.0406720
2919.01, 0.0406120
2920.65, 0.0405530
2922.3, 0.0404340
2923.94, 0.0402560
2925.59, 0.0400780
2927.25, 0.0400190
2928.9, 0.0400190
2930.56, 0.0401370
2932.21, 0.0401970
2933.87, 0.0401970
2935.53, 0.0403750
2937.2, 0.0404940
2938.86, 0.0404940
2940.53, 0.0406720
2942.2, 0.0407310
2943.87, 0.0407310
2945.54, 0.0408500
2947.22, 0.0412060
2948.89, 0.0413840
2950.57, 0.0413840
2952.25, 0.0416220
2953.93, 0.0418000
2955.62, 0.0418590
2957.3, 0.0420970
2958.99, 0.0423340
2960.68, 0.0424530
2962.37, 0.0426910
2964.07, 0.0430470
2965.76, 0.0434030
2967.46, 0.0438190
2969.16, 0.0441750
2970.86, 0.0444720
2972.56, 0.0448280
2974.27, 0.0451840
2975.98, 0.0454810
2977.69, 0.0457780
2979.4, 0.0461340
2981.11, 0.0464910
2982.83, 0.0468470
2984.54, 0.0473220
2986.26, 0.0476780
2987.98, 0.0483310
2989.71, 0.0487470
2991.43, 0.0491030
2993.16, 0.0495190
2994.89, 0.0501120
2996.62, 0.0508250
2998.35, 0.0514190
3000.09, 0.0519530
3001.83, 0.0523690
3003.57, 0.0529030
3005.31, 0.0536150
3007.05, 0.0542690
3008.79, 0.0549220
3010.54, 0.0555150
3012.29, 0.0560500
3014.04, 0.0567620
3015.8, 0.0573560
3017.55, 0.0579500
3019.31, 0.0586620
3021.07, 0.0593150
3022.83, 0.0600280
3024.59, 0.0608590
3026.36, 0.0615120
3028.13, 0.0621060
3029.9, 0.0628190
3031.67, 0.0635900
3033.44, 0.0643620
3035.22, 0.0651940
3037.0, 0.0660840
3038.78, 0.0666190
3040.56, 0.0672720
3042.34, 0.0680440
3044.13, 0.0688150
3045.92, 0.0697060
3047.71, 0.0706560
3049.5, 0.0714280
3051.3, 0.0721400
3053.09, 0.0729120
3054.89, 0.0738030
3056.69, 0.0747530
3058.5, 0.0755840
3060.3, 0.0764150
3062.11, 0.0771280
3063.92, 0.0778400
3065.73, 0.0786120
3067.55, 0.0794440
3069.36, 0.0803340
3071.18, 0.0813440
3073.0, 0.0822940
3074.82, 0.0832440
3076.65, 0.0841340
3078.48, 0.0849060
3080.31, 0.0857970
3082.14, 0.0866280
3083.97, 0.0874000
3085.8, 0.0883500
3087.64, 0.0894190
3089.48, 0.0903090
3091.33, 0.0910810
3093.17, 0.0916750
3095.02, 0.0926840
3096.87, 0.0937530
3098.72, 0.0947620
3100.57, 0.0956530
3102.43, 0.0966620
3104.28, 0.0974340
3106.14, 0.0980280
3108.01, 0.0988590
3109.87, 0.0998680
3111.74, 0.100759
3113.61, 0.101590
3115.48, 0.102540
3117.35, 0.103550
3119.23, 0.104381
3121.1, 0.105390
3122.98, 0.106400
3124.87, 0.107231
3126.75, 0.107884
3128.64, 0.108656
3130.53, 0.109606
3132.42, 0.110437
3134.31, 0.111328
3136.21, 0.112397
3138.11, 0.113406
3140.01, 0.114237
3141.91, 0.114890
3143.82, 0.115662
3145.73, 0.116612
3147.64, 0.117443
3149.55, 0.118453
3151.46, 0.119522
3153.38, 0.120531
3155.3, 0.121362
3157.22, 0.122134
3159.14, 0.122965
3161.07, 0.123915
3163.0, 0.124925
3164.93, 0.125756
3166.86, 0.126587
3168.8, 0.127597
3170.74, 0.128487
3172.68, 0.129497
3174.62, 0.130447
3176.56, 0.131159
3178.51, 0.131990
3180.46, 0.133059
3182.42, 0.134128
3184.37, 0.135078
3186.33, 0.136028
3188.29, 0.136978
3190.25, 0.137868
3192.21, 0.138818
3194.18, 0.139768
3196.15, 0.140718
3198.12, 0.141728
3200.09, 0.142678
3202.07, 0.143628
3204.05, 0.144637
3206.03, 0.145587
3208.02, 0.146537
3210.0, 0.147487
3211.99, 0.148259
3213.98, 0.149150
3215.98, 0.150040
3217.97, 0.150931
3219.97, 0.151703
3221.97, 0.152593
3223.98, 0.153484
3225.98, 0.154434
3227.99, 0.155384
3230.0, 0.156096
3232.02, 0.156809
3234.03, 0.157818
3236.05, 0.158650
3238.07, 0.159303
3240.1, 0.160253
3242.12, 0.161084
3244.15, 0.161737
3246.18, 0.162450
3248.22, 0.163162
3250.25, 0.163875
3252.29, 0.164587
3254.33, 0.165300
3256.38, 0.166131
3258.43, 0.166903
3260.47, 0.167615
3262.53, 0.168209
3264.58, 0.168743
3266.64, 0.169396
3268.7, 0.170109
3270.76, 0.170821
3272.82, 0.171415
3274.89, 0.171890
3276.96, 0.172484
3279.04, 0.173018
3281.11, 0.173671
3283.19, 0.174384
3285.27, 0.174800
3287.35, 0.175275
3289.44, 0.176046
3291.53, 0.176759
3293.62, 0.177353
3295.71, 0.177828
3297.81, 0.178303
3299.91, 0.178896
3302.01, 0.179728
3304.11, 0.180321
3306.22, 0.180975
3308.33, 0.181687
3310.44, 0.182103
3312.56, 0.182459
3314.68, 0.183053
3316.8, 0.183765
3318.92, 0.184300
3321.05, 0.184775
3323.18, 0.185368
3325.31, 0.186021
3327.44, 0.186496
3329.58, 0.187150
3331.72, 0.187684
3333.86, 0.188218
3336.01, 0.188693
3338.16, 0.189168
3340.31, 0.189703
3342.46, 0.190178
3344.61, 0.190771
3346.77, 0.191306
3348.94, 0.191900
3351.1, 0.192256
3353.27, 0.192612
3355.44, 0.193265
3357.61, 0.193859
3359.79, 0.194215
3361.97, 0.194453
3364.15, 0.194809
3366.33, 0.195462
3368.52, 0.196056
3370.71, 0.196353
3372.9, 0.196887
3375.1, 0.197362
3377.3, 0.197837
3379.5, 0.198371
3381.71, 0.199084
3383.91, 0.199796
3386.12, 0.200390
3388.34, 0.200984
3390.55, 0.201340
3392.77, 0.201756
3394.99, 0.202112
3397.22, 0.202646
3399.45, 0.203121
3401.68, 0.203596
3403.91, 0.203953
3406.15, 0.204249
3408.39, 0.204665
3410.63, 0.205081
3412.87, 0.205378
3415.12, 0.205793
3417.37, 0.206446
3419.63, 0.207040
3421.88, 0.207753
3424.14, 0.208524
3426.41, 0.209178
3428.67, 0.209712
3430.94, 0.210306
3433.21, 0.210899
3435.49, 0.211493
3437.77, 0.212087
3440.05, 0.212740
3442.33, 0.213334
3444.62, 0.213690
3446.91, 0.214046
3449.2, 0.214640
3451.5, 0.215293
3453.8, 0.215709
3456.1, 0.216243
3458.41, 0.216778
3460.72, 0.217312
3463.03, 0.217728
3465.34, 0.218084
3467.66, 0.218321
3469.98, 0.218737
3472.31, 0.219271
3474.63, 0.219746
3476.96, 0.220103
3479.3, 0.220518
3481.64, 0.220934
3483.97, 0.221409
3486.32, 0.222003
3488.66, 0.222478
3491.01, 0.222893
3493.36, 0.223249
3495.72, 0.223487
3498.08, 0.223784
3500.44, 0.224318
3502.81, 0.224793
3505.18, 0.225446
3507.55, 0.226278
3509.92, 0.226871
3512.3, 0.227465
3514.68, 0.228118
3517.06, 0.228771
3519.45, 0.229365
3521.84, 0.229959
3524.24, 0.230671
3526.64, 0.231265
3529.04, 0.231859
3531.44, 0.232453
3533.85, 0.232809
3536.26, 0.233343
3538.67, 0.234056
3541.09, 0.234709
3543.51, 0.235184
3545.93, 0.235778
3548.36, 0.236312
3550.79, 0.236846
3553.22, 0.237440
3555.66, 0.238034
3558.1, 0.238687
3560.54, 0.239281
3562.99, 0.239934
3565.44, 0.240587
3567.9, 0.241062
3570.35, 0.241596
3572.81, 0.242249
3575.28, 0.242962
3577.75, 0.243615
3580.22, 0.244268
3582.69, 0.244981
3585.17, 0.245574
3587.65, 0.246168
3590.14, 0.246702
3592.62, 0.247415
3595.11, 0.247890
3597.61, 0.248306
3600.11, 0.249077
3602.61, 0.249671
3605.11, 0.250265
3607.62, 0.250799
3610.14, 0.251334
3612.65, 0.251809
3615.17, 0.252224
3617.69, 0.252759
3620.22, 0.253234
3622.75, 0.253709
3625.28, 0.254243
3627.82, 0.254777
3630.36, 0.255252
3632.9, 0.255668
3635.45, 0.256084
3638.0, 0.256559
3640.56, 0.256915
3643.12, 0.257271
3645.68, 0.257687
3648.24, 0.258102
3650.81, 0.258399
3653.39, 0.258815
3655.96, 0.259290
3658.54, 0.259765
3661.13, 0.260181
3663.71, 0.260477
3666.3, 0.260774
3668.9, 0.261012
3671.5, 0.261427
3674.1, 0.261962
3676.7, 0.262437
3679.31, 0.262793
3681.93, 0.262912
3684.54, 0.263149
3687.17, 0.263506
3689.79, 0.263921
3692.42, 0.264218
3695.05, 0.264456
3697.69, 0.264812
3700.32, 0.264990
3702.97, 0.265227
3705.61, 0.265702
3708.27, 0.266059
3710.92, 0.266237
3713.58, 0.266593
3716.24, 0.267009
3718.91, 0.267306
3721.58, 0.267543
3724.25, 0.267721
3726.93, 0.268077
3729.61, 0.268493
3732.29, 0.268731
3734.98, 0.269027
3737.67, 0.269384
3740.37, 0.269621
3743.07, 0.269977
3745.78, 0.270334
3748.49, 0.270512
3751.2, 0.270809
3753.91, 0.271106
3756.63, 0.271581
3759.36, 0.271818
3762.09, 0.272056
3764.82, 0.272352
3767.55, 0.272590
3770.29, 0.272887
3773.04, 0.273124
3775.78, 0.273184
3778.54, 0.273421
3781.29, 0.273718
3784.05, 0.273956
3786.82, 0.274193
3789.59, 0.274431
3792.36, 0.274490
3795.13, 0.274609
3797.92, 0.274965
3800.7, 0.275321
3803.49, 0.275440
3806.28, 0.275559
3809.08, 0.275796
3811.88, 0.276093
3814.68, 0.276331
3817.49, 0.276449
3820.31, 0.276627
3823.12, 0.276806
3825.94, 0.277043
3828.77, 0.277162
3831.6, 0.277459
3834.43, 0.277815
3837.27, 0.278112
3840.11, 0.278468
3842.96, 0.278824
3845.81, 0.279002
3848.67, 0.279240
3851.53, 0.279537
3854.39, 0.279774
3857.26, 0.280071
3860.13, 0.280249
3863.01, 0.280487
3865.89, 0.280784
3868.77, 0.280962
3871.66, 0.281140
3874.55, 0.281318
3877.45, 0.281496
3880.35, 0.281793
3883.26, 0.281971
3886.17, 0.282090
3889.09, 0.282268
3892.01, 0.282506
3894.93, 0.282684
3897.86, 0.282862
3900.79, 0.283040
3903.73, 0.283159
3906.67, 0.283218
3909.62, 0.283337
3912.57, 0.283515
3915.52, 0.283693
3918.48, 0.283871
3921.45, 0.283990
3924.42, 0.283931
3927.39, 0.283990
3930.37, 0.284168
3933.35, 0.284287
3936.34, 0.284346
3939.33, 0.284465
3942.32, 0.284643
3945.32, 0.284821
3948.33, 0.284821
3951.34, 0.284881
3954.35, 0.285059
3957.37, 0.285059
3960.39, 0.284999
3963.42, 0.285118
3966.45, 0.285296
3969.49, 0.285356
3972.53, 0.285474
3975.58, 0.285652
3978.63, 0.285831
3981.68, 0.285949
3984.75, 0.286009
3987.81, 0.286127
3990.88, 0.286306
3993.95, 0.286306
3997.03, 0.286187
4000.12, 0.286306
4003.21, 0.286484
4006.3, 0.286662
4009.4, 0.286662
4012.5, 0.286721
4015.61, 0.286840
4018.72, 0.286959
4021.84, 0.287018
4024.96, 0.287018
4028.09, 0.287018
4031.22, 0.287137
4034.36, 0.287196
4037.5, 0.287196
4040.65, 0.287374
4043.8, 0.287493
4046.96, 0.287374
4050.12, 0.287434
4053.29, 0.287493
4056.46, 0.287552
4059.64, 0.287552
4062.82, 0.287493
4066.0, 0.287493
4069.19, 0.287552
4072.39, 0.287552
4075.59, 0.287552
4078.8, 0.287434
4082.01, 0.287374
4085.23, 0.287374
4088.45, 0.287374
4091.68, 0.287434
4094.91, 0.287434
4098.15, 0.287374
4101.39, 0.287256
4104.63, 0.287315
4107.89, 0.287256
4111.14, 0.287137
4114.41, 0.287077
4117.67, 0.287077
4120.95, 0.287077
4124.23, 0.286959
4127.51, 0.286840
4130.8, 0.286840
4134.09, 0.286899
4137.39, 0.286899
4140.7, 0.286721
4144.01, 0.286602
4147.32, 0.286543
4150.64, 0.286306
4153.97, 0.286246
4157.3, 0.286187
4160.64, 0.286127
4163.98, 0.286009
4167.33, 0.285890
4170.68, 0.285771
4174.04, 0.285712
4177.4, 0.285593
4180.77, 0.285474
4184.14, 0.285296
4187.52, 0.285177
4190.91, 0.284881
4194.3, 0.284702
4197.69, 0.284524
4201.1, 0.284109
4204.5, 0.283515
4207.92, 0.282862
4211.34, 0.282149
4214.76, 0.281437
4218.19, 0.280784
4221.62, 0.280190
4225.06, 0.279537
4228.51, 0.279062
4231.96, 0.278706
4235.42, 0.278587
4238.88, 0.278527
4242.35, 0.278706
4245.83, 0.278943
4249.31, 0.279359
4252.79, 0.280071
4256.28, 0.280427
4259.78, 0.279834
4263.29, 0.278884
4266.79, 0.278290
4270.31, 0.277756
4273.83, 0.277518
4277.35, 0.277340
4280.89, 0.277162
4284.42, 0.276984
4287.97, 0.276984
4291.52, 0.276924
4295.07, 0.276865
4298.63, 0.276865
4302.2, 0.276806
4305.78, 0.276865
4309.35, 0.276806
4312.94, 0.276806
4316.53, 0.276865
4320.13, 0.276924
4323.73, 0.276865
4327.34, 0.276806
4330.96, 0.276687
4334.58, 0.276687
4338.21, 0.276568
4341.84, 0.276331
4345.48, 0.276212
4349.12, 0.276034
4352.77, 0.275796
4356.43, 0.275499
4360.1, 0.275202
4363.76, 0.274965
4367.44, 0.274787
4371.12, 0.274549
4374.81, 0.274312
4378.51, 0.274134
4382.21, 0.273777
4385.92, 0.273421
4389.63, 0.273184
4393.35, 0.272827
4397.08, 0.272531
4400.81, 0.272174
4404.55, 0.271759
4408.29, 0.271521
4412.04, 0.271224
4415.8, 0.270868
4419.57, 0.270452
4423.34, 0.269977
4427.12, 0.269562
4430.9, 0.269206
4434.69, 0.268790
4438.49, 0.268256
4442.29, 0.267721
4446.1, 0.267365
4449.92, 0.266949
4453.74, 0.266474
4457.57, 0.265999
4461.41, 0.265584
4465.25, 0.264931
4469.1, 0.264396
4472.95, 0.263921
4476.82, 0.263446
4480.69, 0.262912
4484.56, 0.262318
4488.44, 0.261724
4492.33, 0.261190
4496.23, 0.260656
4500.13, 0.260002
4504.04, 0.259409
4507.96, 0.259112
4511.88, 0.258577
4515.81, 0.257924
4519.75, 0.257331
4523.69, 0.256737
4527.65, 0.256262
4531.6, 0.255727
4535.57, 0.255074
4539.54, 0.254481
4543.52, 0.253768
4547.5, 0.252996
4551.5, 0.252165
4555.5, 0.251452
4559.5, 0.250621
4563.52, 0.249612
4567.54, 0.248662
4571.56, 0.247534
4575.6, 0.246346
4579.64, 0.245099
4583.69, 0.243852
4587.75, 0.242724
4591.81, 0.241478
4595.88, 0.240290
4599.96, 0.239103
4604.04, 0.237915
4608.14, 0.236787
4612.24, 0.235837
4616.34, 0.234946
4620.46, 0.234234
4624.58, 0.233521
4628.71, 0.232928
4632.84, 0.232274
4636.99, 0.231621
4641.14, 0.230909
4645.3, 0.230256
4649.47, 0.229484
4653.64, 0.228653
4657.82, 0.227821
4662.01, 0.226931
4666.21, 0.226040
4670.41, 0.225031
4674.62, 0.223843
4678.84, 0.222656
4683.07, 0.221468
4687.3, 0.220340
4691.54, 0.219034
4695.79, 0.217668
4700.05, 0.216243
4704.31, 0.214937
4708.59, 0.213631
4712.87, 0.212324
4717.15, 0.210721
4721.45, 0.209118
4725.76, 0.207634
4730.07, 0.206149
4734.39, 0.204665
4738.72, 0.203240
4743.05, 0.201756
4747.39, 0.200153
4751.75, 0.198846
4756.1, 0.197718
4760.47, 0.196471
4764.85, 0.195343
4769.23, 0.194275
4773.62, 0.193146
4778.02, 0.192256
4782.43, 0.191306
4786.85, 0.190356
4791.27, 0.189465
4795.7, 0.188693
4800.14, 0.187981
4804.59, 0.187031
4809.05, 0.186081
4813.51, 0.185131
4817.99, 0.184300
4822.47, 0.183409
4826.96, 0.182459
4831.46, 0.181390
4835.96, 0.180381
4840.48, 0.179431
4845.0, 0.178540
4849.54, 0.177650
4854.08, 0.176640
4858.63, 0.175571
4863.18, 0.174503
4867.75, 0.173612
4872.33, 0.172603
4876.91, 0.171593
4881.5, 0.170525
4886.1, 0.169456
4890.71, 0.168446
4895.33, 0.167318
4899.96, 0.166250
4904.59, 0.165359
4909.24, 0.164409
4913.89, 0.163340
4918.55, 0.162271
4923.22, 0.161381
4927.9, 0.160609
4932.59, 0.159659
4937.29, 0.158887
4942.0, 0.158175
4946.71, 0.157581
4951.44, 0.156868
4956.17, 0.156215
4960.91, 0.155681
4965.67, 0.155146
4970.43, 0.154731
4975.2, 0.154553
4979.98, 0.154256
4984.76, 0.153959
4989.56, 0.153781
4994.37, 0.153603
4999.18, 0.153543
5004.01, 0.153603
5008.84, 0.153543
5013.69, 0.153425
5018.54, 0.153425
5023.4, 0.153662
5028.28, 0.153781
5033.16, 0.153840
5038.05, 0.153900
5042.95, 0.154018
5047.86, 0.154018
5052.78, 0.154078
5057.71, 0.154137
5062.65, 0.154196
5067.6, 0.154315
5072.56, 0.154315
5077.53, 0.154315
5082.5, 0.154315
5087.49, 0.154375
5092.49, 0.154493
5097.5, 0.154493
5102.51, 0.154493
5107.54, 0.154493
5112.58, 0.154375
5117.62, 0.154315
5122.68, 0.154256
5127.75, 0.154137
5132.82, 0.154137
5137.91, 0.153959
5143.01, 0.153721
5148.12, 0.153543
5153.23, 0.153484
5158.36, 0.153306
5163.5, 0.152950
5168.65, 0.152534
5173.81, 0.152296
5178.98, 0.152059
5184.15, 0.151703
5189.34, 0.151287
5194.54, 0.150812
5199.75, 0.150278
5204.98, 0.149803
5210.21, 0.149268
5215.45, 0.148793
5220.7, 0.148378
5225.96, 0.148021
5231.23, 0.147428
5236.52, 0.146953
5241.81, 0.146478
5247.12, 0.145943
5252.44, 0.145409
5257.76, 0.144875
5263.1, 0.144459
5268.45, 0.144103
5273.81, 0.143747
5279.18, 0.143568
5284.56, 0.143212
5289.95, 0.142737
5295.36, 0.142500
5300.77, 0.142322
5306.2, 0.142143
5311.63, 0.141965
5317.08, 0.141847
5322.54, 0.141728
5328.01, 0.141668
5333.49, 0.141728
5338.98, 0.141609
5344.49, 0.141193
5350.0, 0.140897
5355.53, 0.141075
5361.07, 0.141193
5366.62, 0.141015
5372.18, 0.140897
5377.75, 0.140837
5383.34, 0.140600
5388.93, 0.140481
5394.54, 0.140422
5400.16, 0.140303
5405.79, 0.140125
5411.44, 0.139828
5417.09, 0.139412
5422.76, 0.139175
5428.43, 0.139115
5434.12, 0.138997
5439.83, 0.138700
5445.54, 0.138284
5451.26, 0.137868
5457.0, 0.137453
5462.75, 0.136859
5468.52, 0.136384
5474.29, 0.136028
5480.08, 0.135672
5485.88, 0.135375
5491.69, 0.134840
5497.51, 0.134306
5503.35, 0.133890
5509.2, 0.133475
5515.06, 0.133000
5520.93, 0.132465
5526.82, 0.132109
5532.71, 0.131812
5538.63, 0.131397
5544.55, 0.130862
5550.49, 0.130387
5556.44, 0.130031
5562.4, 0.129793
5568.37, 0.129497
5574.36, 0.129081
5580.36, 0.128725
5586.37, 0.128665
5592.4, 0.128547
5598.44, 0.128250
5604.49, 0.128012
5610.56, 0.127834
5616.63, 0.127656
5622.73, 0.127537
5628.83, 0.127359
5634.95, 0.127062
5641.08, 0.126825
5647.23, 0.126825
5653.39, 0.126825
5659.56, 0.126943
5665.74, 0.126825
5671.94, 0.126409
5678.15, 0.126172
5684.38, 0.126112
5690.62, 0.125756
5696.87, 0.125340
5703.14, 0.124806
5709.42, 0.124212
5715.72, 0.123737
5722.03, 0.123322
5728.35, 0.122728
5734.69, 0.122193
5741.03, 0.121540
5747.4, 0.120887
5753.78, 0.120234
5760.17, 0.119225
5766.58, 0.118275
5773.0, 0.117800
5779.44, 0.117147
5785.88, 0.116493
5792.35, 0.115781
5798.83, 0.115068
5805.32, 0.114415
5811.83, 0.113643
5818.35, 0.112753
5824.89, 0.112278
5831.45, 0.112040
5838.01, 0.111862
5844.59, 0.111625
5851.19, 0.111209
5857.8, 0.110912
5864.43, 0.110675
5871.07, 0.110318
5877.73, 0.109665
5884.4, 0.109606
5891.09, 0.109606
5897.79, 0.109428
5904.5, 0.109606
5911.23, 0.109665
5917.98, 0.109487
5924.75, 0.109250
5931.53, 0.108834
5938.32, 0.108715
5945.13, 0.109072
5951.96, 0.109250
5958.8, 0.109131
5965.65, 0.108834
5972.53, 0.108834
5979.42, 0.108834
5986.32, 0.108656
5993.24, 0.108715
6000.18, 0.108775
6007.13, 0.108478
6014.1, 0.108240
6021.08, 0.108359
6028.09, 0.108300
6035.1, 0.107884
6042.14, 0.107112
6049.19, 0.106459
6056.25, 0.106815
6063.34, 0.106697
6070.44, 0.106222
6077.55, 0.106103
6084.69, 0.105984
6091.84, 0.105806
6099.0, 0.105272
6106.19, 0.104678
6113.39, 0.104143
6120.61, 0.104025
6127.84, 0.103847
6135.09, 0.103490
6142.36, 0.103075
6149.65, 0.102540
6156.95, 0.102125
6164.27, 0.101887
6171.61, 0.101590
6178.97, 0.101175
6186.34, 0.100759
6193.73, 0.100640
6201.14, 0.100581
6208.57, 0.100284
6216.01, 0.0999280
6223.47, 0.0997500
6230.95, 0.0996310
6238.45, 0.0995720
6245.97, 0.0995720
6253.5, 0.0996310
6261.06, 0.0996310
6268.63, 0.0995720
6276.21, 0.0996900
6283.82, 0.0998090
6291.45, 0.0998680
6299.1, 0.100106
6306.76, 0.100343
6314.44, 0.100640
6322.14, 0.100937
6329.86, 0.101234
6337.6, 0.101353
6345.35, 0.101709
6353.13, 0.102540
6360.92, 0.102956
6368.74, 0.103253
6376.57, 0.103906
6384.43, 0.104500
6392.3, 0.105093
6400.19, 0.105568
6408.1, 0.105509
6416.03, 0.105984
6423.98, 0.107112
6431.95, 0.107825
6439.94, 0.108418
6447.95, 0.109072
6455.98, 0.109843
6464.03, 0.110378
6472.1, 0.110675
6480.19, 0.110972
6488.31, 0.111387
6496.44, 0.112100
6504.59, 0.113050
6512.76, 0.113643
6520.95, 0.114118
6529.16, 0.114712
6537.4, 0.115068
6545.65, 0.115306
6553.92, 0.115781
6562.22, 0.116197
6570.54, 0.116375
6578.88, 0.116850
6587.23, 0.117265
6595.61, 0.117740
6604.02, 0.118334
6612.44, 0.118572
6620.89, 0.118631
6629.35, 0.118512
6637.84, 0.118690
6646.35, 0.119343
6654.88, 0.119937
6663.44, 0.120056
6672.01, 0.120115
6680.61, 0.120234
6689.23, 0.120590
6697.88, 0.120709
6706.54, 0.120768
6715.23, 0.121006
6723.94, 0.121243
6732.67, 0.121481
6741.42, 0.121600
6750.2, 0.121718
6759.0, 0.121778
6767.82, 0.121600
6776.67, 0.121422
6785.54, 0.121184
6794.44, 0.121243
6803.35, 0.121600
6812.29, 0.121481
6821.26, 0.121184
6830.24, 0.121243
6839.25, 0.121422
6848.29, 0.121006
6857.35, 0.120353
6866.43, 0.120412
6875.54, 0.120768
6884.67, 0.120650
6893.82, 0.120412
6903.0, 0.120234
6912.2, 0.120115
6921.43, 0.119937
6930.69, 0.119640
6939.96, 0.119403
6949.27, 0.119106
6958.59, 0.118572
6967.95, 0.118453
6977.33, 0.118393
6986.73, 0.117978
6996.16, 0.117562
7005.61, 0.117265
7015.09, 0.116968
7024.6, 0.116612
7034.13, 0.116197
7043.69, 0.115543
7053.27, 0.115247
7062.88, 0.115128
7072.52, 0.114890
7082.18, 0.114415
7091.87, 0.114178
7101.58, 0.113822
7111.32, 0.113406
7121.09, 0.112990
7130.88, 0.112515
7140.71, 0.111981
7150.56, 0.111625
7160.43, 0.111209
7170.33, 0.110675
7180.27, 0.110318
7190.23, 0.110022
7200.21, 0.109487
7210.23, 0.108953
7220.27, 0.108656
7230.34, 0.108359
7240.44, 0.108003
7250.56, 0.107528
7260.72, 0.107172
7270.9, 0.106578
7281.12, 0.106103
7291.36, 0.105747
7301.63, 0.105331
7311.93, 0.104915
7322.25, 0.104500
7332.61, 0.104025
7343.0, 0.103550
7353.41, 0.103015
7363.86, 0.102540
7374.33, 0.101947
7384.83, 0.101412
7395.37, 0.100937
7405.93, 0.100462
7416.53, 0.0999280
7427.15, 0.0994530
7437.81, 0.0989780
7448.5, 0.0985620
7459.22, 0.0980280
7469.96, 0.0974340
7480.74, 0.0970180
7491.55, 0.0965440
7502.39, 0.0960690
7513.27, 0.0955340
7524.17, 0.0950590
7535.11, 0.0946440
7546.08, 0.0942870
7557.08, 0.0938120
7568.11, 0.0932190
7579.17, 0.0926250
7590.27, 0.0920900
7601.4, 0.0916150
7612.56, 0.0910220
7623.76, 0.0904280
7634.98, 0.0899530
7646.24, 0.0896560
7657.54, 0.0891810
7668.87, 0.0885870
7680.23, 0.0880530
7691.62, 0.0875780
7703.05, 0.0869840
7714.51, 0.0863900
7726.01, 0.0858560
7737.54, 0.0853220
7749.11, 0.0847280
7760.71, 0.0841340
7772.35, 0.0836000
7784.02, 0.0831250
7795.72, 0.0825310
7807.46, 0.0819970
7819.23, 0.0814030
7831.04, 0.0807500
7842.89, 0.0801560
7854.77, 0.0793840
7866.69, 0.0787900
7878.65, 0.0782560
7890.64, 0.0774250
7902.67, 0.0766530
7914.74, 0.0759400
7926.84, 0.0752280
7938.98, 0.0743970
7951.16, 0.0736840
7963.37, 0.0729120
7975.62, 0.0720810
7987.91, 0.0713690
8000.24, 0.0706560
8012.6, 0.0696470
8025.01, 0.0687560
8037.45, 0.0679250
8049.93, 0.0670940
8062.45, 0.0662030
8075.01, 0.0653720
8087.61, 0.0643620
8100.24, 0.0633530
8112.91, 0.0625220
8125.63, 0.0615120
8138.39, 0.0605030
8151.18, 0.0595530
8164.02, 0.0586030
8176.9, 0.0575340
8189.81, 0.0564650
8202.77, 0.0553970
8215.77, 0.0542690
8228.82, 0.0531400
8241.9, 0.0520720
8255.02, 0.0510620
8268.19, 0.0500530
8281.39, 0.0489250
8294.65, 0.0477370
8307.94, 0.0465500
8321.28, 0.0456000
8334.66, 0.0445910
8348.08, 0.0434620
8361.54, 0.0422750
8375.05, 0.0410870
8388.6, 0.0400190
8402.2, 0.0388910
8415.84, 0.0377030
8429.52, 0.0366940
8443.25, 0.0357440
8457.02, 0.0347340
8470.84, 0.0337840
8484.7, 0.0326560
8498.61, 0.0317060
8512.57, 0.0307560
8526.57, 0.0299840
8540.62, 0.0292120
8554.71, 0.0284410
8568.85, 0.0276690
8583.04, 0.0269560
8597.27, 0.0262440
8611.55, 0.0255310
8625.88, 0.0247000
8640.26, 0.0241060
8654.68, 0.0236310
8669.16, 0.0232750
8683.68, 0.0228000
8698.25, 0.0224440
8712.87, 0.0222660
8727.53, 0.0221470
8742.25, 0.0220280
8757.02, 0.0220280
8771.83, 0.0221470
8786.7, 0.0222660
8801.62, 0.0223840
8816.59, 0.0227410
8831.61, 0.0232750
8846.68, 0.0239870
8861.8, 0.0248780
8876.97, 0.0259470
8892.2, 0.0270160
8907.48, 0.0281440
8922.81, 0.0292720
8938.2, 0.0309940
8953.63, 0.0328340
8969.13, 0.0349120
8984.67, 0.0374060
9000.27, 0.0404340
9015.92, 0.0438780
9031.63, 0.0477370
9047.39, 0.0516560
9063.21, 0.0556940
9079.08, 0.0596720
9095.01, 0.0637690
9111.0, 0.0677470
9127.04, 0.0716650
9143.13, 0.0751090
9159.28, 0.0783750
9175.49, 0.0814030
9191.76, 0.0845500
9208.09, 0.0883500
9224.47, 0.0927440
9240.92, 0.0979090
9257.42, 0.103728
9273.98, 0.109843
9290.6, 0.115959
9307.28, 0.121481
9324.02, 0.126172
9340.82, 0.129912
9357.68, 0.132347
9374.6, 0.133653
9391.58, 0.133593
9408.62, 0.132228
9425.73, 0.130268
9442.9, 0.128368
9460.13, 0.126409
9477.42, 0.124925
9494.78, 0.123975
9512.2, 0.123678
9529.69, 0.124450
9547.24, 0.125875
9564.86, 0.127953
9582.54, 0.130625
9600.28, 0.133950
9618.1, 0.137690
9635.97, 0.141431
9653.92, 0.145587
9671.93, 0.149803
9690.01, 0.153840
9708.16, 0.157343
9726.37, 0.159718
9744.65, 0.161500
9763.0, 0.162568
9781.43, 0.162568
9799.92, 0.162271
9818.48, 0.161678
9837.1, 0.160787
9855.8, 0.159896
9874.58, 0.158828
9893.42, 0.157462
9912.34, 0.155800
9931.33, 0.153721
9950.39, 0.151465
9969.52, 0.149268
9988.74, 0.147368
10008.0, 0.145172
10027.4, 0.142678
10046.8, 0.140184
10066.3, 0.137215
10085.9, 0.133772
10105.6, 0.130268
10125.3, 0.126647
10145.1, 0.122490
10165.0, 0.118215
10185.0, 0.114178
10205.0, 0.110497
10225.2, 0.107290
10245.4, 0.104678
10265.7, 0.102303
10286.0, 0.100106
10306.5, 0.0981470
10327.0, 0.0964250
10347.6, 0.0948220
10368.3, 0.0929810
10389.1, 0.0913780
10409.9, 0.0902500
10430.9, 0.0890030
10451.9, 0.0872810
10473.0, 0.0857970
10494.2, 0.0845500
10515.5, 0.0828870
10536.9, 0.0807500
10558.4, 0.0786120
10579.9, 0.0766530
10601.5, 0.0743370
10623.3, 0.0717250
10645.1, 0.0690530
10667.0, 0.0664400
10689.0, 0.0638280
10711.1, 0.0616310
10733.2, 0.0593150
10755.5, 0.0570590
10777.9, 0.0552780
10800.3, 0.0535560
10822.9, 0.0520120
10845.5, 0.0507060
10868.2, 0.0494590
10891.1, 0.0483310
10914.0, 0.0471440
10937.0, 0.0461940
10960.2, 0.0451840
10983.4, 0.0441160
11006.7, 0.0433440
11030.1, 0.0426910
11053.6, 0.0419190
11077.3, 0.0413840
11101.0, 0.0409090
11124.8, 0.0401970
11148.7, 0.0396030
11172.7, 0.0389500
11196.9, 0.0381780
11221.1, 0.0375840
11245.4, 0.0369910
11269.9, 0.0362190
11294.4, 0.0358620
11319.1, 0.0355660
11343.9, 0.0349120
11368.8, 0.0344970
11393.7, 0.0338440
11418.8, 0.0331910
11444.0, 0.0325970
11469.4, 0.0321810
11494.8, 0.0317060
11520.3, 0.0311720
11546.0, 0.0306970
11571.8, 0.0304590
11597.7, 0.0300440
11623.7, 0.0296280
11649.8, 0.0292120
11676.0, 0.0286190
11702.4, 0.0279660
11728.9, 0.0273720
11755.5, 0.0265410
11782.2, 0.0257090
11809.0, 0.0251750
11836.0, 0.0243440
11863.0, 0.0232750
11890.3, 0.0225620
11917.6, 0.0219090
11945.0, 0.0210780
11972.6, 0.0201870
12000.4, 0.0196530
12028.2, 0.0194750
12056.2, 0.0192970
12084.3, 0.0189410
12112.5, 0.0189410
12140.9, 0.0191190
12169.4, 0.0190590
12198.0, 0.0189410
12226.8, 0.0188220
12255.7, 0.0191780
12284.7, 0.0194750
12313.9, 0.0194160
12343.2, 0.0193560
12372.7, 0.0192370
12402.3, 0.0193560
12432.0, 0.0194160
12461.9, 0.0195940
12491.9, 0.0197720
12522.1, 0.0202470
12552.4, 0.0203660
12582.9, 0.0208410
12613.5, 0.0221470
12644.3, 0.0231560
12675.2, 0.0239870
12706.3, 0.0247000
12737.5, 0.0254120
12768.9, 0.0263030
12800.4, 0.0276090
12832.1, 0.0290340
12863.9, 0.0298060
12895.9, 0.0307560
12928.1, 0.0322410
12960.4, 0.0334870
12992.9, 0.0344370
13025.5, 0.0350910
13058.3, 0.0357440
13091.3, 0.0365750
13124.4, 0.0371690
13157.8, 0.0375250
13191.2, 0.0375250
13224.9, 0.0376440
13258.7, 0.0373470
13292.7, 0.0369910
13326.9, 0.0360410
13361.2, 0.0352090
13395.7, 0.0345560
13430.4, 0.0336060
13465.3, 0.0329530
13500.4, 0.0325970
13535.7, 0.0319440
13571.1, 0.0314090
13606.7, 0.0309940
13642.5, 0.0309940
13678.5, 0.0309340
13714.7, 0.0305190
13751.1, 0.0304000
13787.6, 0.0304000
13824.4, 0.0303410
13861.4, 0.0305780
13898.5, 0.0305780
13935.9, 0.0301620
13973.5, 0.0298060
14011.2, 0.0304000
14049.2, 0.0305190
14087.4, 0.0299840
14125.8, 0.0296280
14164.3, 0.0293910
14203.2, 0.0292720
14242.2, 0.0293310
14281.4, 0.0296870
14320.9, 0.0302220
14360.5, 0.0309940
14400.4, 0.0317660
14440.5, 0.0327750
14480.9, 0.0340220
14521.4, 0.0353870
14562.2, 0.0366340
14603.3, 0.0377620
14644.5, 0.0390090
14686.0, 0.0400190
14727.7, 0.0404940
14769.7, 0.0408500
14811.9, 0.0414440
14854.3, 0.0415620
14897.0, 0.0416220
14939.9, 0.0419190
14983.1, 0.0427500
15026.5, 0.0436410
15070.2, 0.0447690
15114.2, 0.0458370
15158.3, 0.0467870
15202.8, 0.0475590
15247.5, 0.0479750
15292.5, 0.0482120
15337.7, 0.0485090
15383.2, 0.0480940
15429.0, 0.0474410
15475.1, 0.0469660
15521.4, 0.0466690
15568.0, 0.0458970
15614.9, 0.0450660
15662.1, 0.0442340
15709.6, 0.0432250
15757.3, 0.0427500
15805.4, 0.0424530
15853.7, 0.0415030
15902.3, 0.0407310
15951.2, 0.0400190
16000.5, 0.0393060
16050.0, 0.0386530
16099.8, 0.0378220
16150.0, 0.0373470
16200.5, 0.0371690
16251.3, 0.0368720
16302.4, 0.0363970
16353.8, 0.0352690
16405.5, 0.0349720
16457.6, 0.0343780
16510.0, 0.0336060
16562.8, 0.0328340
16615.9, 0.0321220
16669.3, 0.0318840
16723.1, 0.0317660
16777.2, 0.0314090
16831.7, 0.0308160
16886.5, 0.0300440
16941.7, 0.0293910
16997.2, 0.0288560
17053.1, 0.0289750
17109.4, 0.0292720
17166.1, 0.0289750
17223.1, 0.0285590
17280.5, 0.0296280
17338.3, 0.0314090
17396.5, 0.0336060
17455.1, 0.0356250
17514.0, 0.0391280
17573.4, 0.0436410
17633.2, 0.0488660
17693.4, 0.0543870
17754.0, 0.0600280
17815.0, 0.0652530
17876.4, 0.0704190
17938.3, 0.0736840
18000.5, 0.0751090
18063.3, 0.0755840
18126.4, 0.0736250
18190.0, 0.0703000
18254.1, 0.0678650
18318.6, 0.0662620
18383.5, 0.0653720
18449.0, 0.0650150
18514.9, 0.0652530
18581.2, 0.0660250
18648.0, 0.0665590
18715.4, 0.0689340
18783.2, 0.0726750
18851.5, 0.0772470
18920.3, 0.0830060
18989.6, 0.0897750
19059.4, 0.0964250
19129.7, 0.103253
19200.6, 0.111150
19272.0, 0.118928
19343.9, 0.126290
19416.3, 0.131159
19489.3, 0.135612
19562.8, 0.141193
19637.0, 0.145350
19711.6, 0.148378
19786.8, 0.151881
19862.6, 0.154434
19939.0, 0.156156
20016.0, 0.159006
20093.6, 0.161975
20171.8, 0.163103
20250.6, 0.163518
20330.0, 0.164528
20410.0, 0.167259
20490.7, 0.170465
20572.0, 0.172781
20654.0, 0.175928
20736.6, 0.179490
20819.9, 0.182578
20903.8, 0.185784
20988.5, 0.188634
21073.8, 0.191662
21159.8, 0.193028
21246.5, 0.194571
21334.0, 0.195996
21422.1, 0.196115
21511.0, 0.194631
21600.7, 0.190475
21691.0, 0.185725
21782.1, 0.181271
21874.0, 0.175750
21966.7, 0.170762
22060.2, 0.166071
22154.5, 0.163221
22249.6, 0.161203
22345.5, 0.160728
22442.2, 0.159837
22539.8, 0.159362
22638.2, 0.160550
22737.5, 0.160965
22837.7, 0.160846
22938.7, 0.158946
23040.7, 0.152950
23143.5, 0.143153
23247.3, 0.132347
23352.1, 0.124093
23457.7, 0.116434
23564.4, 0.114772
23672.0, 0.112634
23780.5, 0.107231
23890.1, 0.100343
24000.7, 0.0959500
24112.3, 0.0942280
24225.0, 0.0932190
24338.7, 0.0940500
24453.5, 0.0925060
24569.4, 0.0888250
24686.4, 0.0844900
24804.5, 0.0822340
