Database of Origin, USGS Spectral Database
Sample Description, See USGS database for additional info
Date Added,2016-08-10 05:28:03.896337

Data ID,USGS_pyr04          
Sample ID, pyrite_hs35.18561
Mineral Name, pyrite
Material Class,Sulfide

Wavelength
1607.49, 0.0566850
1607.99, 0.0569100
1608.49, 0.0570230
1608.99, 0.0567420
1609.49, 0.0569670
1609.99, 0.0575290
1610.49, 0.0578100
1610.99, 0.0578660
1611.49, 0.0579790
1611.99, 0.0582040
1612.49, 0.0582040
1612.99, 0.0582040
1613.49, 0.0584850
1614.0, 0.0585410
1614.5, 0.0583160
1615.0, 0.0582600
1615.51, 0.0583160
1616.01, 0.0579790
1616.51, 0.0581480
1617.02, 0.0586540
1617.52, 0.0586540
1618.03, 0.0586540
1618.53, 0.0584290
1619.04, 0.0586540
1619.54, 0.0588220
1620.05, 0.0589910
1620.55, 0.0592160
1621.06, 0.0589910
1621.57, 0.0588790
1622.08, 0.0591040
1622.58, 0.0590470
1623.09, 0.0589350
1623.6, 0.0592160
1624.11, 0.0594410
1624.62, 0.0593290
1625.13, 0.0598910
1625.64, 0.0598910
1626.15, 0.0597220
1626.66, 0.0598910
1627.17, 0.0603410
1627.68, 0.0602850
1628.19, 0.0600600
1628.7, 0.0600030
1629.21, 0.0601160
1629.72, 0.0600600
1630.24, 0.0600600
1630.75, 0.0597780
1631.26, 0.0601720
1631.78, 0.0604530
1632.29, 0.0603970
1632.8, 0.0601160
1633.32, 0.0600030
1633.83, 0.0602850
1634.35, 0.0601160
1634.86, 0.0602850
1635.38, 0.0605090
1635.9, 0.0602280
1636.41, 0.0603970
1636.93, 0.0605660
1637.45, 0.0606220
1637.96, 0.0609030
1638.48, 0.0610160
1639.0, 0.0609590
1639.52, 0.0610720
1640.04, 0.0612410
1640.56, 0.0610160
1641.08, 0.0606780
1641.59, 0.0606220
1642.11, 0.0608470
1642.63, 0.0610720
1643.16, 0.0615220
1643.68, 0.0618030
1644.2, 0.0618030
1644.72, 0.0619150
1645.24, 0.0618030
1645.76, 0.0614090
1646.29, 0.0615780
1646.81, 0.0620840
1647.33, 0.0619150
1647.86, 0.0614650
1648.38, 0.0612410
1648.9, 0.0613530
1649.43, 0.0614090
1649.95, 0.0617470
1650.48, 0.0621400
1651.0, 0.0622530
1651.53, 0.0621400
1652.06, 0.0620280
1652.58, 0.0619150
1653.11, 0.0620280
1653.64, 0.0621400
1654.17, 0.0620280
1654.69, 0.0619150
1655.22, 0.0619720
1655.75, 0.0618030
1656.28, 0.0618030
1656.81, 0.0623650
1657.34, 0.0627590
1657.87, 0.0624780
1658.4, 0.0622530
1658.93, 0.0623650
1659.46, 0.0624780
1659.99, 0.0628150
1660.52, 0.0633210
1661.05, 0.0629840
1661.59, 0.0625340
1662.12, 0.0624210
1662.65, 0.0625900
1663.19, 0.0629280
1663.72, 0.0634900
1664.26, 0.0637710
1664.79, 0.0636020
1665.32, 0.0630400
1665.86, 0.0629280
1666.39, 0.0630400
1666.93, 0.0631530
1667.47, 0.0631530
1668.0, 0.0634900
1668.54, 0.0637710
1669.08, 0.0637150
1669.61, 0.0636020
1670.15, 0.0633210
1670.69, 0.0630400
1671.23, 0.0633770
1671.77, 0.0633770
1672.31, 0.0633770
1672.85, 0.0637150
1673.39, 0.0638840
1673.93, 0.0637710
1674.47, 0.0636590
1675.01, 0.0632650
1675.55, 0.0630960
1676.09, 0.0637150
1676.64, 0.0639400
1677.18, 0.0633210
1677.72, 0.0632090
1678.26, 0.0637150
1678.81, 0.0640520
1679.35, 0.0636590
1679.89, 0.0634340
1680.44, 0.0637710
1680.98, 0.0639960
1681.53, 0.0639960
1682.07, 0.0640520
1682.62, 0.0642770
1683.17, 0.0645580
1683.71, 0.0644460
1684.26, 0.0642210
1684.81, 0.0639960
1685.36, 0.0639960
1685.9, 0.0640520
1686.45, 0.0638270
1687.0, 0.0640520
1687.55, 0.0645580
1688.1, 0.0645580
1688.65, 0.0640520
1689.2, 0.0642210
1689.75, 0.0645580
1690.3, 0.0646710
1690.85, 0.0645580
1691.41, 0.0642210
1691.96, 0.0639960
1692.51, 0.0643330
1693.06, 0.0647270
1693.61, 0.0646710
1694.17, 0.0649520
1694.72, 0.0651770
1695.28, 0.0650650
1695.83, 0.0648400
1696.39, 0.0650080
1696.94, 0.0650650
1697.5, 0.0652330
1698.05, 0.0651770
1698.61, 0.0650080
1699.17, 0.0651210
1699.72, 0.0655140
1700.28, 0.0652330
1700.84, 0.0650080
1701.4, 0.0650080
1701.95, 0.0650650
1702.51, 0.0652900
1703.07, 0.0656270
1703.63, 0.0657390
1704.19, 0.0654020
1704.75, 0.0649520
1705.31, 0.0649520
1705.88, 0.0654580
1706.44, 0.0655140
1707.0, 0.0655710
1707.56, 0.0659640
1708.12, 0.0659640
1708.69, 0.0654580
1709.25, 0.0653460
1709.81, 0.0654020
1710.38, 0.0652900
1710.94, 0.0654020
1711.51, 0.0656270
1712.07, 0.0659080
1712.64, 0.0656830
1713.2, 0.0654020
1713.77, 0.0656830
1714.34, 0.0660210
1714.9, 0.0661330
1715.47, 0.0660770
1716.04, 0.0659080
1716.61, 0.0660210
1717.18, 0.0659080
1717.74, 0.0659640
1718.31, 0.0662460
1718.88, 0.0662460
1719.45, 0.0661330
1720.02, 0.0660770
1720.59, 0.0663020
1721.17, 0.0663580
1721.74, 0.0665270
1722.31, 0.0665830
1722.88, 0.0660770
1723.45, 0.0657960
1724.03, 0.0661890
1724.6, 0.0665270
1725.18, 0.0664700
1725.75, 0.0664700
1726.33, 0.0664140
1726.9, 0.0665270
1727.48, 0.0667520
1728.05, 0.0665270
1728.63, 0.0664140
1729.2, 0.0665270
1729.78, 0.0665830
1730.36, 0.0666390
1730.94, 0.0668080
1731.51, 0.0670330
1732.09, 0.0670330
1732.67, 0.0670330
1733.25, 0.0667520
1733.83, 0.0663580
1734.41, 0.0664140
1734.99, 0.0669200
1735.57, 0.0669200
1736.15, 0.0670330
1736.73, 0.0675390
1737.32, 0.0673700
1737.9, 0.0667520
1738.48, 0.0668080
1739.07, 0.0672020
1739.65, 0.0669770
1740.23, 0.0664700
1740.82, 0.0664700
1741.4, 0.0668640
1741.99, 0.0673700
1742.57, 0.0673700
1743.16, 0.0670890
1743.74, 0.0672580
1744.33, 0.0670890
1744.92, 0.0667520
1745.51, 0.0666390
1746.09, 0.0669200
1746.68, 0.0672020
1747.27, 0.0675390
1747.86, 0.0678200
1748.45, 0.0675950
1749.04, 0.0672020
1749.63, 0.0670890
1750.22, 0.0670890
1750.81, 0.0673140
1751.4, 0.0674260
1751.99, 0.0672020
1752.59, 0.0672580
1753.18, 0.0677080
1753.77, 0.0675950
1754.37, 0.0673140
1754.96, 0.0673700
1755.56, 0.0674830
1756.15, 0.0677080
1756.74, 0.0679330
1757.34, 0.0680450
1757.94, 0.0677640
1758.53, 0.0675390
1759.13, 0.0674260
1759.73, 0.0673700
1760.32, 0.0674830
1760.92, 0.0676510
1761.52, 0.0677640
1762.12, 0.0679890
1762.72, 0.0679890
1763.32, 0.0681580
1763.92, 0.0678760
1764.52, 0.0674830
1765.12, 0.0675390
1765.72, 0.0677080
1766.32, 0.0677640
1766.92, 0.0676510
1767.53, 0.0676510
1768.13, 0.0677640
1768.73, 0.0679890
1769.34, 0.0680450
1769.94, 0.0679330
1770.55, 0.0677640
1771.15, 0.0678760
1771.76, 0.0679890
1772.36, 0.0679330
1772.97, 0.0682700
1773.57, 0.0686640
1774.18, 0.0685510
1774.79, 0.0683820
1775.4, 0.0683260
1776.0, 0.0683260
1776.61, 0.0685510
1777.22, 0.0684390
1777.83, 0.0683260
1778.44, 0.0683820
1779.05, 0.0684950
1779.66, 0.0686070
1780.27, 0.0683820
1780.88, 0.0682140
1781.5, 0.0683820
1782.11, 0.0683260
1782.72, 0.0682700
1783.33, 0.0682140
1783.95, 0.0682140
1784.56, 0.0682140
1785.18, 0.0683260
1785.79, 0.0683820
1786.41, 0.0683820
1787.02, 0.0690570
1787.64, 0.0691700
1788.26, 0.0689450
1788.87, 0.0685510
1789.49, 0.0684390
1790.11, 0.0686640
1790.73, 0.0686070
1791.35, 0.0686640
1791.96, 0.0687760
1792.58, 0.0684950
1793.21, 0.0683820
1793.83, 0.0687760
1794.45, 0.0686640
1795.07, 0.0686070
1795.69, 0.0688890
1796.31, 0.0691140
1796.93, 0.0693380
1797.56, 0.0693950
1798.18, 0.0693380
1798.8, 0.0691140
1799.43, 0.0688890
1800.05, 0.0688890
1800.68, 0.0690570
1801.3, 0.0692260
1801.93, 0.0692260
1802.56, 0.0691140
1803.18, 0.0691140
1803.81, 0.0690570
1804.44, 0.0690010
1805.07, 0.0689450
1805.7, 0.0687760
1806.33, 0.0688320
1806.95, 0.0690570
1807.58, 0.0693380
1808.22, 0.0695070
1808.85, 0.0695070
1809.48, 0.0694510
1810.11, 0.0693380
1810.74, 0.0692260
1811.38, 0.0692820
1812.01, 0.0695070
1812.64, 0.0695630
1813.28, 0.0693950
1813.91, 0.0695630
1814.55, 0.0695070
1815.18, 0.0695070
1815.82, 0.0696760
1816.45, 0.0695070
1817.09, 0.0691140
1817.73, 0.0692260
1818.36, 0.0696200
1819.0, 0.0696200
1819.64, 0.0695630
1820.28, 0.0695070
1820.92, 0.0693380
1821.56, 0.0694510
1822.2, 0.0694510
1822.84, 0.0693380
1823.48, 0.0693380
1824.12, 0.0694510
1824.76, 0.0693950
1825.41, 0.0693380
1826.05, 0.0694510
1826.69, 0.0696760
1827.34, 0.0697320
1827.98, 0.0699010
1828.63, 0.0697320
1829.27, 0.0696760
1829.92, 0.0697320
1830.56, 0.0696760
1831.21, 0.0697880
1831.86, 0.0695070
1832.5, 0.0695630
1833.15, 0.0700700
1833.8, 0.0699570
1834.45, 0.0699010
1835.1, 0.0700700
1835.75, 0.0701260
1836.4, 0.0698450
1837.05, 0.0695630
1837.7, 0.0699010
1838.35, 0.0699570
1839.01, 0.0700130
1839.66, 0.0700130
1840.31, 0.0699010
1840.96, 0.0698450
1841.62, 0.0697320
1842.27, 0.0696200
1842.93, 0.0697880
1843.58, 0.0700130
1844.24, 0.0700130
1844.9, 0.0701260
1845.55, 0.0698450
1846.21, 0.0699010
1846.87, 0.0701820
1847.53, 0.0702380
1848.18, 0.0702380
1848.84, 0.0701820
1849.5, 0.0699570
1850.16, 0.0700130
1850.82, 0.0702380
1851.48, 0.0702380
1852.14, 0.0702380
1852.81, 0.0705190
1853.47, 0.0702940
1854.13, 0.0700130
1854.8, 0.0699570
1855.46, 0.0700130
1856.12, 0.0699570
1856.79, 0.0702380
1857.45, 0.0705760
1858.12, 0.0704630
1858.79, 0.0704630
1859.45, 0.0704630
1860.12, 0.0704070
1860.79, 0.0702940
1861.46, 0.0701820
1862.12, 0.0701820
1862.79, 0.0700700
1863.46, 0.0701820
1864.13, 0.0704630
1864.8, 0.0706320
1865.48, 0.0704630
1866.15, 0.0700700
1866.82, 0.0700700
1867.49, 0.0703510
1868.16, 0.0703510
1868.84, 0.0701820
1869.51, 0.0704070
1870.19, 0.0706320
1870.86, 0.0706880
1871.54, 0.0704630
1872.21, 0.0703510
1872.89, 0.0704630
1873.56, 0.0701820
1874.24, 0.0700700
1874.92, 0.0704630
1875.6, 0.0704630
1876.28, 0.0705190
1876.96, 0.0707440
1877.64, 0.0706320
1878.32, 0.0708010
1879.0, 0.0709690
1879.68, 0.0706880
1880.36, 0.0705190
1881.04, 0.0706320
1881.73, 0.0709690
1882.41, 0.0711380
1883.09, 0.0710260
1883.78, 0.0709130
1884.46, 0.0706320
1885.15, 0.0704070
1885.83, 0.0705190
1886.52, 0.0707440
1887.21, 0.0706880
1887.89, 0.0706320
1888.58, 0.0705190
1889.27, 0.0706320
1889.96, 0.0709130
1890.65, 0.0709690
1891.34, 0.0709690
1892.03, 0.0710260
1892.72, 0.0710260
1893.41, 0.0706320
1894.1, 0.0707440
1894.79, 0.0709690
1895.49, 0.0707440
1896.18, 0.0706320
1896.87, 0.0708010
1897.57, 0.0706880
1898.26, 0.0706320
1898.96, 0.0707440
1899.65, 0.0710820
1900.35, 0.0713630
1901.05, 0.0712500
1901.74, 0.0707440
1902.44, 0.0706880
1903.14, 0.0710260
1903.84, 0.0709690
1904.54, 0.0709690
1905.24, 0.0710820
1905.94, 0.0710260
1906.64, 0.0712500
1907.34, 0.0713070
1908.04, 0.0711940
1908.75, 0.0710260
1909.45, 0.0708010
1910.15, 0.0710820
1910.86, 0.0713070
1911.56, 0.0711380
1912.27, 0.0709130
1912.97, 0.0710820
1913.68, 0.0711940
1914.39, 0.0710260
1915.09, 0.0708570
1915.8, 0.0708010
1916.51, 0.0710260
1917.22, 0.0710260
1917.93, 0.0709690
1918.64, 0.0709130
1919.35, 0.0709130
1920.06, 0.0712500
1920.77, 0.0713630
1921.48, 0.0711940
1922.19, 0.0710820
1922.91, 0.0709690
1923.62, 0.0708570
1924.33, 0.0706320
1925.05, 0.0705190
1925.76, 0.0708010
1926.48, 0.0711380
1927.19, 0.0711940
1927.91, 0.0709690
1928.63, 0.0708010
1929.35, 0.0708570
1930.07, 0.0709130
1930.78, 0.0709130
1931.5, 0.0709690
1932.22, 0.0708010
1932.94, 0.0709130
1933.66, 0.0710820
1934.39, 0.0708010
1935.11, 0.0705190
1935.83, 0.0709130
1936.55, 0.0711380
1937.28, 0.0709690
1938.0, 0.0706880
1938.73, 0.0706320
1939.45, 0.0706880
1940.18, 0.0708010
1940.9, 0.0708010
1941.63, 0.0706320
1942.36, 0.0706320
1943.09, 0.0706320
1943.81, 0.0708010
1944.54, 0.0709130
1945.27, 0.0709130
1946.0, 0.0706880
1946.73, 0.0706320
1947.47, 0.0705190
1948.2, 0.0702380
1948.93, 0.0702380
1949.66, 0.0704070
1950.4, 0.0705190
1951.13, 0.0706320
1951.86, 0.0707440
1952.6, 0.0708570
1953.34, 0.0707440
1954.07, 0.0706880
1954.81, 0.0708010
1955.55, 0.0707440
1956.29, 0.0706320
1957.02, 0.0705190
1957.76, 0.0704630
1958.5, 0.0703510
1959.24, 0.0704070
1959.98, 0.0703510
1960.72, 0.0703510
1961.47, 0.0704070
1962.21, 0.0705190
1962.95, 0.0706320
1963.7, 0.0705760
1964.44, 0.0706320
1965.18, 0.0704630
1965.93, 0.0704070
1966.67, 0.0706880
1967.42, 0.0706880
1968.17, 0.0706320
1968.92, 0.0705760
1969.66, 0.0702380
1970.41, 0.0705190
1971.16, 0.0707440
1971.91, 0.0709690
1972.66, 0.0709130
1973.41, 0.0704630
1974.16, 0.0702380
1974.92, 0.0702940
1975.67, 0.0704630
1976.42, 0.0705760
1977.18, 0.0705190
1977.93, 0.0704630
1978.69, 0.0703510
1979.44, 0.0704070
1980.2, 0.0704630
1980.95, 0.0705760
1981.71, 0.0705190
1982.47, 0.0705190
1983.23, 0.0706320
1983.99, 0.0706320
1984.74, 0.0704070
1985.51, 0.0701260
1986.27, 0.0704070
1987.03, 0.0706320
1987.79, 0.0705760
1988.55, 0.0705190
1989.32, 0.0706320
1990.08, 0.0706320
1990.84, 0.0705190
1991.61, 0.0704070
1992.37, 0.0705760
1993.14, 0.0707440
1993.9, 0.0708010
1994.67, 0.0705760
1995.44, 0.0704070
1996.21, 0.0704070
1996.98, 0.0706320
1997.75, 0.0706880
1998.52, 0.0705760
1999.29, 0.0706320
2000.06, 0.0707440
2000.83, 0.0706880
2001.6, 0.0705190
2002.38, 0.0705760
2003.15, 0.0705760
2003.93, 0.0705760
2004.7, 0.0709130
2005.48, 0.0709130
2006.25, 0.0709130
2007.03, 0.0710820
2007.81, 0.0709130
2008.58, 0.0707440
2009.36, 0.0709130
2010.14, 0.0709690
2010.92, 0.0709130
2011.7, 0.0706880
2012.48, 0.0707440
2013.26, 0.0709130
2014.05, 0.0708570
2014.83, 0.0709130
2015.61, 0.0709130
2016.4, 0.0706320
2017.18, 0.0705190
2017.97, 0.0707440
2018.75, 0.0708010
2019.54, 0.0707440
2020.32, 0.0705760
2021.11, 0.0708010
2021.9, 0.0710820
2022.69, 0.0711380
2023.48, 0.0711380
2024.27, 0.0712500
2025.06, 0.0711940
2025.85, 0.0710260
2026.64, 0.0710820
2027.44, 0.0709130
2028.23, 0.0708010
2029.02, 0.0709130
2029.82, 0.0709690
2030.61, 0.0709130
2031.41, 0.0709130
2032.2, 0.0709690
2033.0, 0.0708570
2033.8, 0.0710820
2034.6, 0.0714750
2035.4, 0.0712500
2036.2, 0.0709130
2037.0, 0.0708570
2037.8, 0.0709690
2038.6, 0.0707440
2039.4, 0.0706880
2040.2, 0.0708570
2041.01, 0.0708570
2041.81, 0.0705190
2042.61, 0.0704630
2043.42, 0.0707440
2044.22, 0.0707440
2045.03, 0.0706880
2045.84, 0.0707440
2046.65, 0.0707440
2047.46, 0.0710260
2048.26, 0.0711940
2049.07, 0.0713070
2049.88, 0.0710820
2050.69, 0.0709130
2051.51, 0.0709130
2052.32, 0.0708570
2053.13, 0.0706880
2053.94, 0.0703510
2054.76, 0.0702940
2055.57, 0.0706320
2056.39, 0.0709130
2057.2, 0.0710260
2058.02, 0.0707440
2058.84, 0.0706320
2059.66, 0.0705760
2060.48, 0.0705190
2061.29, 0.0705760
2062.11, 0.0709690
2062.94, 0.0709690
2063.76, 0.0705760
2064.58, 0.0706320
2065.4, 0.0705760
2066.22, 0.0704630
2067.05, 0.0708010
2067.87, 0.0710820
2068.7, 0.0711940
2069.52, 0.0710260
2070.35, 0.0708570
2071.18, 0.0708010
2072.0, 0.0705760
2072.83, 0.0703510
2073.66, 0.0705760
2074.49, 0.0708010
2075.32, 0.0708010
2076.15, 0.0708010
2076.98, 0.0708010
2077.82, 0.0707440
2078.65, 0.0710260
2079.48, 0.0711940
2080.32, 0.0711380
2081.15, 0.0706880
2081.99, 0.0706320
2082.83, 0.0706880
2083.66, 0.0706880
2084.5, 0.0708010
2085.34, 0.0707440
2086.18, 0.0708010
2087.02, 0.0711380
2087.86, 0.0711380
2088.7, 0.0710820
2089.54, 0.0709690
2090.39, 0.0710820
2091.23, 0.0711940
2092.07, 0.0710260
2092.92, 0.0710820
2093.76, 0.0713070
2094.61, 0.0712500
2095.45, 0.0710820
2096.3, 0.0709690
2097.15, 0.0711380
2098.0, 0.0712500
2098.85, 0.0714190
2099.7, 0.0713070
2100.55, 0.0711380
2101.4, 0.0712500
2102.25, 0.0712500
2103.1, 0.0713630
2103.96, 0.0714190
2104.81, 0.0713070
2105.67, 0.0713630
2106.52, 0.0713630
2107.38, 0.0715880
2108.24, 0.0715880
2109.09, 0.0715880
2109.95, 0.0714750
2110.81, 0.0714750
2111.67, 0.0717570
2112.53, 0.0717570
2113.39, 0.0715880
2114.25, 0.0717000
2115.12, 0.0719250
2115.98, 0.0719250
2116.84, 0.0717000
2117.71, 0.0717000
2118.58, 0.0719250
2119.44, 0.0719820
2120.31, 0.0719250
2121.18, 0.0719250
2122.04, 0.0719250
2122.91, 0.0720940
2123.78, 0.0723190
2124.65, 0.0723750
2125.52, 0.0721500
2126.4, 0.0720380
2127.27, 0.0722060
2128.14, 0.0720940
2129.02, 0.0718130
2129.89, 0.0720380
2130.77, 0.0722060
2131.64, 0.0722630
2132.52, 0.0723750
2133.4, 0.0724880
2134.27, 0.0726000
2135.15, 0.0724880
2136.03, 0.0723190
2136.91, 0.0723750
2137.79, 0.0723750
2138.68, 0.0723190
2139.56, 0.0724310
2140.44, 0.0724880
2141.33, 0.0722630
2142.21, 0.0720940
2143.1, 0.0721500
2143.99, 0.0723190
2144.87, 0.0723750
2145.76, 0.0726560
2146.65, 0.0728250
2147.54, 0.0728250
2148.43, 0.0727130
2149.32, 0.0725440
2150.21, 0.0726560
2151.1, 0.0727690
2151.99, 0.0727130
2152.89, 0.0727130
2153.78, 0.0727130
2154.68, 0.0726560
2155.57, 0.0727130
2156.47, 0.0728250
2157.37, 0.0728250
2158.27, 0.0727690
2159.16, 0.0726560
2160.06, 0.0727130
2160.96, 0.0727130
2161.86, 0.0727130
2162.77, 0.0728250
2163.67, 0.0731060
2164.57, 0.0730500
2165.48, 0.0728810
2166.38, 0.0729380
2167.29, 0.0729380
2168.2, 0.0729380
2169.1, 0.0731620
2170.01, 0.0731060
2170.92, 0.0729940
2171.83, 0.0731060
2172.74, 0.0732750
2173.65, 0.0734440
2174.56, 0.0734440
2175.47, 0.0733310
2176.39, 0.0732190
2177.3, 0.0731620
2178.22, 0.0731060
2179.13, 0.0732750
2180.05, 0.0733870
2180.96, 0.0732750
2181.88, 0.0733310
2182.8, 0.0733870
2183.72, 0.0735000
2184.64, 0.0736690
2185.56, 0.0737250
2186.48, 0.0735000
2187.41, 0.0733310
2188.33, 0.0733870
2189.25, 0.0735560
2190.18, 0.0735000
2191.1, 0.0735560
2192.03, 0.0736690
2192.96, 0.0735000
2193.89, 0.0734440
2194.82, 0.0735560
2195.74, 0.0735560
2196.68, 0.0736120
2197.61, 0.0738370
2198.54, 0.0739500
2199.47, 0.0738370
2200.4, 0.0737810
2201.34, 0.0738370
2202.28, 0.0737810
2203.21, 0.0737810
2204.15, 0.0738370
2205.08, 0.0738370
2206.02, 0.0737250
2206.96, 0.0738940
2207.9, 0.0740620
2208.84, 0.0737250
2209.78, 0.0736690
2210.73, 0.0738370
2211.67, 0.0737810
2212.61, 0.0738940
2213.56, 0.0739500
2214.5, 0.0738940
2215.45, 0.0740620
2216.4, 0.0743430
2217.35, 0.0743430
2218.3, 0.0742310
2219.24, 0.0742310
2220.2, 0.0742870
2221.15, 0.0742870
2222.1, 0.0741180
2223.05, 0.0740620
2224.0, 0.0741180
2224.96, 0.0742870
2225.91, 0.0743430
2226.87, 0.0743430
2227.83, 0.0742870
2228.79, 0.0740620
2229.74, 0.0740620
2230.7, 0.0742310
2231.66, 0.0742870
2232.63, 0.0741750
2233.59, 0.0741180
2234.55, 0.0741750
2235.51, 0.0743430
2236.48, 0.0744000
2237.44, 0.0742870
2238.41, 0.0743430
2239.38, 0.0744000
2240.34, 0.0744560
2241.31, 0.0743430
2242.28, 0.0742310
2243.25, 0.0741750
2244.22, 0.0741750
2245.19, 0.0742870
2246.17, 0.0746250
2247.14, 0.0746810
2248.12, 0.0745680
2249.09, 0.0746810
2250.07, 0.0746810
2251.04, 0.0745680
2252.02, 0.0745120
2253.0, 0.0743430
2253.98, 0.0742310
2254.96, 0.0742870
2255.94, 0.0744000
2256.92, 0.0743430
2257.91, 0.0742310
2258.89, 0.0742870
2259.88, 0.0745120
2260.86, 0.0746250
2261.85, 0.0743430
2262.83, 0.0742310
2263.82, 0.0742870
2264.81, 0.0744560
2265.8, 0.0744000
2266.79, 0.0744560
2267.78, 0.0745120
2268.78, 0.0745680
2269.77, 0.0744560
2270.76, 0.0744560
2271.76, 0.0744000
2272.75, 0.0744000
2273.75, 0.0744560
2274.75, 0.0744000
2275.75, 0.0744560
2276.75, 0.0744560
2277.75, 0.0742310
2278.75, 0.0742870
2279.75, 0.0742310
2280.75, 0.0744000
2281.76, 0.0745680
2282.76, 0.0744560
2283.77, 0.0745680
2284.77, 0.0744560
2285.78, 0.0743430
2286.79, 0.0744000
2287.8, 0.0744560
2288.81, 0.0743430
2289.82, 0.0742310
2290.83, 0.0743430
2291.84, 0.0745680
2292.86, 0.0746810
2293.87, 0.0746250
2294.89, 0.0745120
2295.91, 0.0744560
2296.92, 0.0745120
2297.94, 0.0744000
2298.96, 0.0744560
2299.98, 0.0745680
2301.0, 0.0747930
2302.02, 0.0749060
2303.04, 0.0746250
2304.07, 0.0744560
2305.09, 0.0745120
2306.12, 0.0746250
2307.15, 0.0746810
2308.17, 0.0746810
2309.2, 0.0747370
2310.23, 0.0747370
2311.26, 0.0747930
2312.29, 0.0749060
2313.32, 0.0749060
2314.35, 0.0749620
2315.39, 0.0748500
2316.42, 0.0749620
2317.46, 0.0750180
2318.5, 0.0747370
2319.53, 0.0747370
2320.57, 0.0749620
2321.61, 0.0751310
2322.65, 0.0750180
2323.69, 0.0747930
2324.73, 0.0747370
2325.78, 0.0747930
2326.82, 0.0749060
2327.86, 0.0748500
2328.91, 0.0747930
2329.96, 0.0750180
2331.01, 0.0748500
2332.05, 0.0749060
2333.1, 0.0752990
2334.15, 0.0753560
2335.21, 0.0751310
2336.26, 0.0749620
2337.31, 0.0747930
2338.36, 0.0749620
2339.42, 0.0751870
2340.48, 0.0751310
2341.53, 0.0750180
2342.59, 0.0750750
2343.65, 0.0752990
2344.71, 0.0752990
2345.77, 0.0753560
2346.83, 0.0754120
2347.9, 0.0751310
2348.96, 0.0751870
2350.02, 0.0753160
2351.09, 0.0752520
2352.16, 0.0752520
2353.23, 0.0752520
2354.29, 0.0753160
2355.36, 0.0754450
2356.43, 0.0755100
2357.51, 0.0753810
2358.58, 0.0752520
2359.65, 0.0755750
2360.73, 0.0757040
2361.8, 0.0754450
2362.88, 0.0752520
2363.96, 0.0752520
2365.03, 0.0754450
2366.11, 0.0757040
2367.19, 0.0757040
2368.27, 0.0754450
2369.36, 0.0755100
2370.44, 0.0754450
2371.53, 0.0755100
2372.61, 0.0757680
2373.7, 0.0757680
2374.78, 0.0758970
2375.87, 0.0761560
2376.96, 0.0759620
2378.05, 0.0756390
2379.14, 0.0756390
2380.24, 0.0760910
2381.33, 0.0758970
2382.42, 0.0754450
2383.52, 0.0756390
2384.61, 0.0759620
2385.71, 0.0761560
2386.81, 0.0760910
2387.91, 0.0760910
2389.01, 0.0762200
2390.11, 0.0760910
2391.22, 0.0758970
2392.32, 0.0760270
2393.42, 0.0764790
2394.53, 0.0764140
2395.64, 0.0762850
2396.74, 0.0760910
2397.85, 0.0761560
2398.96, 0.0761560
2400.07, 0.0761560
2401.18, 0.0760270
2402.3, 0.0760910
2403.41, 0.0762200
2404.52, 0.0765430
2405.64, 0.0769310
2406.76, 0.0768660
2407.88, 0.0769960
2408.99, 0.0771250
2410.11, 0.0767370
2411.23, 0.0766080
2412.36, 0.0768020
2413.48, 0.0767370
2414.6, 0.0768020
2415.73, 0.0766730
2416.85, 0.0764790
2417.98, 0.0768020
2419.11, 0.0770600
2420.24, 0.0768020
2421.37, 0.0768660
2422.5, 0.0773190
2423.64, 0.0775120
2424.77, 0.0775120
2425.9, 0.0772540
2427.04, 0.0771890
2428.18, 0.0774480
2429.31, 0.0773190
2430.45, 0.0773190
2431.59, 0.0777060
2432.73, 0.0777060
2433.88, 0.0774480
2435.02, 0.0775120
2436.16, 0.0777710
2437.31, 0.0779000
2438.45, 0.0776420
2439.6, 0.0777060
2440.75, 0.0777710
2441.9, 0.0775770
2443.05, 0.0779640
2444.2, 0.0780290
2445.35, 0.0779000
2446.51, 0.0779000
2447.67, 0.0780290
2448.82, 0.0779640
2449.98, 0.0779000
2451.14, 0.0781580
2452.3, 0.0783520
2453.46, 0.0784170
2454.62, 0.0785460
2455.78, 0.0786750
2456.94, 0.0785460
2458.11, 0.0782230
2459.28, 0.0782230
2460.44, 0.0786100
2461.61, 0.0786750
2462.78, 0.0786100
2463.95, 0.0786100
2465.12, 0.0788040
2466.3, 0.0792560
2467.47, 0.0792560
2468.65, 0.0791270
2469.82, 0.0792560
2471.0, 0.0794500
2472.18, 0.0795150
2473.36, 0.0794500
2474.54, 0.0791920
2475.72, 0.0789980
2476.9, 0.0790630
2478.08, 0.0790630
2479.27, 0.0791920
2480.46, 0.0794500
2481.64, 0.0793210
2482.83, 0.0790630
2484.02, 0.0791270
2485.21, 0.0793860
2486.4, 0.0790630
2487.6, 0.0788690
2488.79, 0.0791270
2489.99, 0.0792560
2491.18, 0.0792560
2492.38, 0.0792560
2493.58, 0.0789980
2494.78, 0.0791920
2495.98, 0.0793860
2497.18, 0.0791920
2498.39, 0.0792560
2499.59, 0.0796440
2500.8, 0.0797730
2502.01, 0.0796440
2503.21, 0.0794500
2504.42, 0.0792560
2505.63, 0.0794500
2506.84, 0.0796440
2508.06, 0.0795790
2509.27, 0.0795150
2510.49, 0.0795790
2511.7, 0.0794500
2512.92, 0.0795150
2514.14, 0.0797730
2515.36, 0.0797730
2516.58, 0.0799020
2517.8, 0.0802250
2519.03, 0.0801610
2520.25, 0.0801610
2521.48, 0.0800310
2522.7, 0.0798380
2523.93, 0.0800960
2525.16, 0.0804840
2526.39, 0.0802250
2527.62, 0.0799670
2528.86, 0.0802900
2530.09, 0.0804840
2531.33, 0.0806130
2532.56, 0.0806770
2533.8, 0.0804190
2535.04, 0.0805480
2536.28, 0.0806770
2537.52, 0.0804840
2538.76, 0.0804190
2540.01, 0.0807420
2541.25, 0.0809360
2542.5, 0.0811300
2543.75, 0.0811940
2544.99, 0.0810650
2546.24, 0.0808710
2547.49, 0.0811940
2548.75, 0.0812590
2550.0, 0.0811940
2551.26, 0.0813880
2552.51, 0.0815170
2553.77, 0.0815820
2555.03, 0.0816460
2556.29, 0.0816460
2557.55, 0.0813230
2558.81, 0.0813880
2560.08, 0.0817110
2561.34, 0.0821630
2562.61, 0.0823570
2563.88, 0.0823570
2565.14, 0.0821630
2566.41, 0.0817110
2567.68, 0.0813880
2568.96, 0.0819690
2570.23, 0.0820980
2571.51, 0.0820340
2572.78, 0.0826150
2574.06, 0.0827440
2575.34, 0.0822280
2576.62, 0.0824860
2577.9, 0.0824860
2579.18, 0.0821630
2580.47, 0.0825510
2581.75, 0.0827440
2583.04, 0.0831970
2584.32, 0.0833900
2585.61, 0.0828090
2586.9, 0.0831970
2588.2, 0.0833900
2589.49, 0.0830030
2590.78, 0.0826800
2592.08, 0.0830030
2593.37, 0.0842300
2594.67, 0.0859740
2595.97, 0.0850700
2597.27, 0.0834550
2598.57, 0.0831320
2599.88, 0.0831970
2601.18, 0.0833900
2602.49, 0.0832610
2603.79, 0.0835840
2605.1, 0.0844880
2606.41, 0.0842300
2607.72, 0.0833900
2609.03, 0.0832610
2610.35, 0.0835840
2611.66, 0.0836490
2612.98, 0.0837130
2614.3, 0.0837130
2615.62, 0.0843590
2616.94, 0.0851340
2618.26, 0.0846820
2619.58, 0.0848110
2620.91, 0.0850050
2622.23, 0.0841650
2623.56, 0.0839720
2624.89, 0.0842950
2626.22, 0.0850050
2627.55, 0.0846180
2628.88, 0.0846180
2630.21, 0.0856510
2631.55, 0.0852640
2632.89, 0.0849410
2634.22, 0.0851340
2635.56, 0.0848760
2636.9, 0.0851990
2638.25, 0.0851990
2639.59, 0.0851340
2640.93, 0.0853280
2642.28, 0.0855870
2643.63, 0.0853930
2644.98, 0.0854570
2646.33, 0.0855870
2647.68, 0.0854570
2649.03, 0.0855870
2650.39, 0.0860390
2651.74, 0.0864260
2653.1, 0.0862970
2654.46, 0.0861680
2655.82, 0.0864260
2657.18, 0.0863620
2658.54, 0.0866850
2659.9, 0.0868140
2661.27, 0.0868140
2662.64, 0.0868780
2664.01, 0.0877180
2665.38, 0.0884930
2666.74, 0.0885580
2668.12, 0.0877180
2669.49, 0.0883640
2670.87, 0.0889450
2672.24, 0.0876540
2673.62, 0.0873310
2675.0, 0.0877180
2676.38, 0.0885580
2677.76, 0.0888160
2679.15, 0.0886220
2680.54, 0.0875890
2681.92, 0.0870080
2683.31, 0.0875890
2684.7, 0.0878470
2686.09, 0.0877830
2687.48, 0.0875240
2688.88, 0.0872660
2690.27, 0.0871370
2691.67, 0.0874600
2693.07, 0.0883640
2694.47, 0.0885580
2695.87, 0.0880410
2697.27, 0.0875890
2698.67, 0.0873950
2700.08, 0.0877180
2701.49, 0.0879770
2702.9, 0.0874600
2704.31, 0.0872660
2705.72, 0.0875240
2707.13, 0.0876540
2708.54, 0.0879770
2709.96, 0.0883640
2711.38, 0.0883640
2712.8, 0.0872660
2714.22, 0.0864910
2715.64, 0.0864910
2717.06, 0.0866200
2718.49, 0.0869430
2719.91, 0.0879120
2721.34, 0.0875890
2722.77, 0.0867490
2724.2, 0.0871370
2725.63, 0.0866200
2727.07, 0.0857160
2728.5, 0.0852640
2729.94, 0.0851340
2731.38, 0.0850700
2732.82, 0.0848760
2734.26, 0.0850700
2735.7, 0.0850050
2737.15, 0.0845530
2738.59, 0.0850050
2740.04, 0.0853930
2741.49, 0.0849410
2742.94, 0.0839720
2744.39, 0.0831970
2745.84, 0.0830670
2747.3, 0.0829380
2748.76, 0.0825510
2750.21, 0.0822280
2751.67, 0.0822920
2753.14, 0.0822920
2754.6, 0.0828740
2756.06, 0.0824860
2757.53, 0.0811300
2759.0, 0.0806770
2760.46, 0.0808710
2761.94, 0.0810650
2763.41, 0.0807420
2764.88, 0.0801610
2766.36, 0.0799020
2767.83, 0.0797090
2769.31, 0.0792560
2770.79, 0.0789980
2772.27, 0.0784170
2773.76, 0.0779000
2775.24, 0.0775120
2776.73, 0.0773830
2778.22, 0.0770600
2779.71, 0.0766080
2781.2, 0.0761560
2782.69, 0.0757680
2784.18, 0.0751870
2785.68, 0.0751220
2787.18, 0.0751220
2788.68, 0.0743470
2790.18, 0.0735720
2791.68, 0.0731200
2793.19, 0.0727970
2794.69, 0.0724090
2796.2, 0.0718930
2797.71, 0.0713760
2799.22, 0.0709240
2800.73, 0.0703420
2802.24, 0.0700190
2803.76, 0.0695030
2805.28, 0.0688570
2806.8, 0.0680820
2808.32, 0.0674360
2809.84, 0.0670480
2811.36, 0.0667900
2812.89, 0.0661440
2814.42, 0.0655630
2815.94, 0.0649170
2817.48, 0.0643350
2819.01, 0.0638830
2820.54, 0.0631080
2822.08, 0.0624620
2823.61, 0.0618810
2825.15, 0.0612990
2826.69, 0.0608470
2828.23, 0.0605240
2829.78, 0.0598780
2831.32, 0.0590390
2832.87, 0.0582630
2834.42, 0.0577470
2835.97, 0.0572950
2837.52, 0.0567780
2839.08, 0.0563260
2840.63, 0.0555510
2842.19, 0.0547110
2843.75, 0.0541940
2845.31, 0.0536130
2846.87, 0.0529020
2848.44, 0.0523850
2850.0, 0.0518040
2851.57, 0.0510290
2853.14, 0.0503180
2854.71, 0.0496080
2856.28, 0.0489620
2857.86, 0.0485100
2859.43, 0.0480580
2861.01, 0.0474120
2862.59, 0.0465720
2864.17, 0.0461200
2865.76, 0.0455380
2867.34, 0.0448280
2868.93, 0.0439880
2870.52, 0.0432780
2872.11, 0.0427610
2873.7, 0.0421800
2875.29, 0.0417920
2876.89, 0.0413400
2878.49, 0.0404360
2880.08, 0.0396600
2881.69, 0.0392730
2883.29, 0.0387560
2884.89, 0.0380460
2886.5, 0.0375290
2888.11, 0.0370120
2889.72, 0.0364310
2891.33, 0.0359790
2892.94, 0.0355910
2894.56, 0.0351390
2896.17, 0.0345580
2897.79, 0.0339760
2899.42, 0.0336530
2901.04, 0.0332010
2902.66, 0.0327490
2904.29, 0.0322970
2905.92, 0.0317800
2907.55, 0.0314570
2909.18, 0.0313920
2910.81, 0.0312630
2912.45, 0.0308760
2914.08, 0.0304880
2915.72, 0.0299710
2917.36, 0.0297130
2919.01, 0.0295190
2920.65, 0.0292610
2922.3, 0.0289380
2923.94, 0.0286150
2925.59, 0.0282270
2927.25, 0.0279040
2928.9, 0.0278400
2930.56, 0.0275810
2932.21, 0.0275810
2933.87, 0.0273880
2935.53, 0.0269360
2937.2, 0.0268710
2938.86, 0.0268710
2940.53, 0.0266770
2942.2, 0.0264830
2943.87, 0.0262250
2945.54, 0.0260960
2947.22, 0.0259670
2948.89, 0.0256440
2950.57, 0.0254500
2952.25, 0.0254500
2953.93, 0.0255790
2955.62, 0.0253210
2957.3, 0.0251920
2958.99, 0.0253210
2960.68, 0.0251920
2962.37, 0.0249330
2964.07, 0.0249330
2965.76, 0.0248040
2967.46, 0.0244810
2969.16, 0.0242230
2970.86, 0.0240930
2972.56, 0.0240930
2974.27, 0.0241580
2975.98, 0.0239000
2977.69, 0.0238350
2979.4, 0.0239640
2981.11, 0.0239640
2982.83, 0.0238350
2984.54, 0.0237060
2986.26, 0.0237700
2987.98, 0.0237700
2989.71, 0.0235770
2991.43, 0.0234470
2993.16, 0.0235770
2994.89, 0.0234470
2996.62, 0.0231890
2998.35, 0.0233830
3000.09, 0.0235120
3001.83, 0.0235770
3003.57, 0.0235770
3005.31, 0.0234470
3007.05, 0.0233180
3008.79, 0.0233180
3010.54, 0.0234470
3012.29, 0.0236410
3014.04, 0.0236410
3015.8, 0.0235120
3017.55, 0.0231890
3019.31, 0.0231250
3021.07, 0.0232540
3022.83, 0.0232540
3024.59, 0.0232540
3026.36, 0.0232540
3028.13, 0.0231250
3029.9, 0.0232540
3031.67, 0.0235120
3033.44, 0.0233180
3035.22, 0.0233180
3037.0, 0.0235120
3038.78, 0.0236410
3040.56, 0.0234470
3042.34, 0.0231890
3044.13, 0.0233180
3045.92, 0.0234470
3047.71, 0.0233830
3049.5, 0.0231890
3051.3, 0.0233830
3053.09, 0.0233830
3054.89, 0.0232540
3056.69, 0.0233180
3058.5, 0.0233830
3060.3, 0.0233180
3062.11, 0.0232540
3063.92, 0.0234470
3065.73, 0.0235120
3067.55, 0.0234470
3069.36, 0.0235770
3071.18, 0.0236410
3073.0, 0.0236410
3074.82, 0.0238350
3076.65, 0.0238350
3078.48, 0.0239000
3080.31, 0.0240290
3082.14, 0.0240290
3083.97, 0.0237060
3085.8, 0.0238350
3087.64, 0.0240930
3089.48, 0.0242870
3091.33, 0.0242230
3093.17, 0.0240930
3095.02, 0.0242230
3096.87, 0.0243520
3098.72, 0.0243520
3100.57, 0.0246100
3102.43, 0.0248690
3104.28, 0.0246750
3106.14, 0.0247390
3108.01, 0.0249980
3109.87, 0.0251920
3111.74, 0.0253210
3113.61, 0.0253850
3115.48, 0.0255790
3117.35, 0.0257080
3119.23, 0.0259020
3121.1, 0.0262900
3122.98, 0.0263540
3124.87, 0.0262250
3126.75, 0.0262900
3128.64, 0.0265480
3130.53, 0.0265480
3132.42, 0.0268060
3134.31, 0.0269360
3136.21, 0.0270000
3138.11, 0.0271290
3140.01, 0.0273230
3141.91, 0.0275170
3143.82, 0.0276460
3145.73, 0.0277750
3147.64, 0.0278400
3149.55, 0.0279040
3151.46, 0.0280980
3153.38, 0.0281630
3155.3, 0.0282270
3157.22, 0.0282920
3159.14, 0.0284210
3161.07, 0.0285500
3163.0, 0.0288730
3164.93, 0.0290670
3166.86, 0.0290670
3168.8, 0.0292610
3170.74, 0.0293260
3172.68, 0.0294550
3174.62, 0.0296480
3176.56, 0.0298420
3178.51, 0.0298420
3180.46, 0.0296480
3182.42, 0.0297780
3184.37, 0.0301010
3186.33, 0.0302300
3188.29, 0.0303590
3190.25, 0.0306170
3192.21, 0.0306820
3194.18, 0.0306820
3196.15, 0.0308110
3198.12, 0.0309400
3200.09, 0.0311340
3202.07, 0.0313280
3204.05, 0.0315220
3206.03, 0.0316510
3208.02, 0.0317150
3210.0, 0.0317800
3211.99, 0.0319090
3213.98, 0.0319090
3215.98, 0.0320380
3217.97, 0.0322320
3219.97, 0.0324260
3221.97, 0.0325550
3223.98, 0.0328140
3225.98, 0.0328780
3227.99, 0.0328780
3230.0, 0.0329430
3232.02, 0.0331370
3234.03, 0.0333950
3236.05, 0.0333950
3238.07, 0.0334590
3240.1, 0.0335890
3242.12, 0.0337180
3244.15, 0.0339760
3246.18, 0.0342350
3248.22, 0.0343640
3250.25, 0.0344930
3252.29, 0.0344930
3254.33, 0.0346870
3256.38, 0.0347510
3258.43, 0.0348810
3260.47, 0.0350740
3262.53, 0.0352040
3264.58, 0.0353330
3266.64, 0.0354620
3268.7, 0.0356560
3270.76, 0.0357850
3272.82, 0.0359140
3274.89, 0.0361080
3276.96, 0.0362370
3279.04, 0.0364310
3281.11, 0.0364950
3283.19, 0.0365600
3285.27, 0.0366890
3287.35, 0.0368830
3289.44, 0.0370120
3291.53, 0.0370770
3293.62, 0.0372710
3295.71, 0.0375290
3297.81, 0.0377870
3299.91, 0.0379160
3302.01, 0.0379160
3304.11, 0.0380460
3306.22, 0.0381750
3308.33, 0.0383690
3310.44, 0.0384980
3312.56, 0.0386270
3314.68, 0.0390790
3316.8, 0.0394670
3318.92, 0.0394670
3321.05, 0.0394020
3323.18, 0.0396600
3325.31, 0.0399830
3327.44, 0.0402420
3329.58, 0.0405000
3331.72, 0.0403710
3333.86, 0.0403710
3336.01, 0.0406290
3338.16, 0.0409520
3340.31, 0.0410820
3342.46, 0.0410820
3344.61, 0.0414050
3346.77, 0.0415340
3348.94, 0.0415340
3351.1, 0.0418570
3353.27, 0.0422440
3355.44, 0.0424380
3357.61, 0.0424380
3359.79, 0.0425030
3361.97, 0.0428260
3364.15, 0.0430190
3366.33, 0.0431490
3368.52, 0.0432780
3370.71, 0.0433420
3372.9, 0.0435360
3375.1, 0.0437300
3377.3, 0.0438590
3379.5, 0.0442470
3381.71, 0.0444400
3383.91, 0.0445700
3386.12, 0.0445700
3388.34, 0.0445700
3390.55, 0.0448930
3392.77, 0.0452160
3394.99, 0.0452160
3397.22, 0.0451510
3399.45, 0.0453450
3401.68, 0.0456030
3403.91, 0.0457970
3406.15, 0.0461200
3408.39, 0.0462490
3410.63, 0.0465070
3412.87, 0.0467010
3415.12, 0.0467660
3417.37, 0.0468950
3419.63, 0.0470890
3421.88, 0.0473470
3424.14, 0.0476050
3426.41, 0.0476700
3428.67, 0.0478640
3430.94, 0.0480580
3433.21, 0.0482510
3435.49, 0.0483810
3437.77, 0.0485100
3440.05, 0.0487040
3442.33, 0.0488330
3444.62, 0.0488330
3446.91, 0.0490270
3449.2, 0.0492850
3451.5, 0.0494140
3453.8, 0.0495430
3456.1, 0.0498020
3458.41, 0.0498660
3460.72, 0.0499310
3463.03, 0.0501250
3465.34, 0.0501890
3467.66, 0.0503180
3469.98, 0.0505120
3472.31, 0.0508350
3474.63, 0.0510940
3476.96, 0.0510940
3479.3, 0.0511580
3481.64, 0.0513520
3483.97, 0.0514810
3486.32, 0.0516100
3488.66, 0.0517390
3491.01, 0.0518690
3493.36, 0.0521270
3495.72, 0.0523210
3498.08, 0.0523850
3500.44, 0.0525790
3502.81, 0.0526440
3505.18, 0.0529020
3507.55, 0.0530310
3509.92, 0.0530310
3512.3, 0.0531610
3514.68, 0.0533540
3517.06, 0.0534190
3519.45, 0.0535480
3521.84, 0.0537420
3524.24, 0.0540000
3526.64, 0.0541290
3529.04, 0.0540650
3531.44, 0.0541940
3533.85, 0.0543880
3536.26, 0.0545820
3538.67, 0.0547110
3541.09, 0.0547750
3543.51, 0.0547750
3545.93, 0.0548400
3548.36, 0.0550340
3550.79, 0.0552920
3553.22, 0.0554210
3555.66, 0.0554860
3558.1, 0.0555510
3560.54, 0.0556150
3562.99, 0.0557440
3565.44, 0.0560030
3567.9, 0.0561320
3570.35, 0.0562610
3572.81, 0.0563260
3575.28, 0.0564550
3577.75, 0.0565840
3580.22, 0.0567130
3582.69, 0.0568420
3585.17, 0.0569720
3587.65, 0.0569720
3590.14, 0.0571010
3592.62, 0.0572950
3595.11, 0.0575530
3597.61, 0.0576820
3600.11, 0.0576820
3602.61, 0.0576820
3605.11, 0.0578110
3607.62, 0.0579400
3610.14, 0.0579400
3612.65, 0.0580050
3615.17, 0.0582630
3617.69, 0.0583930
3620.22, 0.0584570
3622.75, 0.0583930
3625.28, 0.0585220
3627.82, 0.0587160
3630.36, 0.0589090
3632.9, 0.0589740
3635.45, 0.0589740
3638.0, 0.0591030
3640.56, 0.0592320
3643.12, 0.0593620
3645.68, 0.0594260
3648.24, 0.0594910
3650.81, 0.0596200
3653.39, 0.0596850
3655.96, 0.0598140
3658.54, 0.0600720
3661.13, 0.0600720
3663.71, 0.0601370
3666.3, 0.0601370
3668.9, 0.0602010
3671.5, 0.0603950
3674.1, 0.0605890
3676.7, 0.0606530
3679.31, 0.0607180
3681.93, 0.0608470
3684.54, 0.0609760
3687.17, 0.0610410
3689.79, 0.0609760
3692.42, 0.0611060
3695.05, 0.0612990
3697.69, 0.0614930
3700.32, 0.0614930
3702.97, 0.0616220
3705.61, 0.0618160
3708.27, 0.0619450
3710.92, 0.0620100
3713.58, 0.0620100
3716.24, 0.0620100
3718.91, 0.0618810
3721.58, 0.0621390
3724.25, 0.0622680
3726.93, 0.0623970
3729.61, 0.0625270
3732.29, 0.0627200
3734.98, 0.0627850
3737.67, 0.0627850
3740.37, 0.0628500
3743.07, 0.0628500
3745.78, 0.0628500
3748.49, 0.0629790
3751.2, 0.0631080
3753.91, 0.0632370
3756.63, 0.0632370
3759.36, 0.0633020
3762.09, 0.0633020
3764.82, 0.0633020
3767.55, 0.0634310
3770.29, 0.0634960
3773.04, 0.0636250
3775.78, 0.0634960
3778.54, 0.0636250
3781.29, 0.0638180
3784.05, 0.0637540
3786.82, 0.0637540
3789.59, 0.0639480
3792.36, 0.0638830
3795.13, 0.0638830
3797.92, 0.0640770
3800.7, 0.0642060
3803.49, 0.0642060
3806.28, 0.0642710
3809.08, 0.0642710
3811.88, 0.0643350
3814.68, 0.0645290
3817.49, 0.0645940
3820.31, 0.0645940
3823.12, 0.0645940
3825.94, 0.0647230
3828.77, 0.0648520
3831.6, 0.0649170
3834.43, 0.0649170
3837.27, 0.0649810
3840.11, 0.0650460
3842.96, 0.0651100
3845.81, 0.0651100
3848.67, 0.0651750
3851.53, 0.0653690
3854.39, 0.0654980
3857.26, 0.0655630
3860.13, 0.0656920
3863.01, 0.0658850
3865.89, 0.0661440
3868.77, 0.0662080
3871.66, 0.0663380
3874.55, 0.0664020
3877.45, 0.0665960
3880.35, 0.0667900
3883.26, 0.0667900
3886.17, 0.0669190
3889.09, 0.0669190
3892.01, 0.0671130
3894.93, 0.0674360
3897.86, 0.0676940
3900.79, 0.0678230
3903.73, 0.0678880
3906.67, 0.0679520
3909.62, 0.0679520
3912.57, 0.0682110
3915.52, 0.0684690
3918.48, 0.0685340
3921.45, 0.0687280
3924.42, 0.0689210
3927.39, 0.0690510
3930.37, 0.0691800
3933.35, 0.0694380
3936.34, 0.0695670
3939.33, 0.0695670
3942.32, 0.0696970
3945.32, 0.0698900
3948.33, 0.0700190
3951.34, 0.0700840
3954.35, 0.0700840
3957.37, 0.0702130
3960.39, 0.0704070
3963.42, 0.0705360
3966.45, 0.0706010
3969.49, 0.0707950
3972.53, 0.0710530
3975.58, 0.0712470
3978.63, 0.0712470
3981.68, 0.0713760
3984.75, 0.0714410
3987.81, 0.0714410
3990.88, 0.0715700
3993.95, 0.0717640
3997.03, 0.0720220
4000.12, 0.0721510
4003.21, 0.0722160
4006.3, 0.0721510
4009.4, 0.0722160
4012.5, 0.0723450
4015.61, 0.0725390
4018.72, 0.0726030
4021.84, 0.0724740
4024.96, 0.0725390
4028.09, 0.0726030
4031.22, 0.0729260
4034.36, 0.0731200
4037.5, 0.0731850
4040.65, 0.0732490
4043.8, 0.0733140
4046.96, 0.0733140
4050.12, 0.0733780
4053.29, 0.0735720
4056.46, 0.0735720
4059.64, 0.0737010
4062.82, 0.0738950
4066.0, 0.0739600
4069.19, 0.0740240
4072.39, 0.0739600
4075.59, 0.0740240
4078.8, 0.0740890
4082.01, 0.0741530
4085.23, 0.0740890
4088.45, 0.0740240
4091.68, 0.0740240
4094.91, 0.0740890
4098.15, 0.0741530
4101.39, 0.0742180
4104.63, 0.0742180
4107.89, 0.0742830
4111.14, 0.0743470
4114.41, 0.0744120
4117.67, 0.0744120
4120.95, 0.0743470
4124.23, 0.0744760
4127.51, 0.0746060
4130.8, 0.0746060
4134.09, 0.0744760
4137.39, 0.0744760
4140.7, 0.0745410
4144.01, 0.0746700
4147.32, 0.0748640
4150.64, 0.0749290
4153.97, 0.0748640
4157.3, 0.0748640
4160.64, 0.0749290
4163.98, 0.0749930
4167.33, 0.0749930
4170.68, 0.0749930
4174.04, 0.0750580
4177.4, 0.0750580
4180.77, 0.0749930
4184.14, 0.0749930
4187.52, 0.0750580
4190.91, 0.0750580
4194.3, 0.0751220
4197.69, 0.0750580
4201.1, 0.0751220
4204.5, 0.0751220
4207.92, 0.0752520
4211.34, 0.0754450
4214.76, 0.0755100
4218.19, 0.0754450
4221.62, 0.0755100
4225.06, 0.0756390
4228.51, 0.0756390
4231.96, 0.0757040
4235.42, 0.0755750
4238.88, 0.0755100
4242.35, 0.0753810
4245.83, 0.0753160
4249.31, 0.0753160
4252.79, 0.0752520
4256.28, 0.0751220
4259.78, 0.0751220
4263.29, 0.0751220
4266.79, 0.0749930
4270.31, 0.0749290
4273.83, 0.0749290
4277.35, 0.0749290
4280.89, 0.0749290
4284.42, 0.0749290
4287.97, 0.0749930
4291.52, 0.0749930
4295.07, 0.0749930
4298.63, 0.0749930
4302.2, 0.0749290
4305.78, 0.0749290
4309.35, 0.0749290
4312.94, 0.0748640
4316.53, 0.0748640
4320.13, 0.0749930
4323.73, 0.0750580
4327.34, 0.0750580
4330.96, 0.0751220
4334.58, 0.0752520
4338.21, 0.0751220
4341.84, 0.0750580
4345.48, 0.0750580
4349.12, 0.0751870
4352.77, 0.0751870
4356.43, 0.0751870
4360.1, 0.0751870
4363.76, 0.0753160
4367.44, 0.0754450
4371.12, 0.0754450
4374.81, 0.0755100
4378.51, 0.0755750
4382.21, 0.0755100
4385.92, 0.0755750
4389.63, 0.0756390
4393.35, 0.0758330
4397.08, 0.0758970
4400.81, 0.0757680
4404.55, 0.0756390
4408.29, 0.0757040
4412.04, 0.0756390
4415.8, 0.0757040
4419.57, 0.0756390
4423.34, 0.0756390
4427.12, 0.0756390
4430.9, 0.0755750
4434.69, 0.0754450
4438.49, 0.0755750
4442.29, 0.0756390
4446.1, 0.0756390
4449.92, 0.0756390
4453.74, 0.0757040
4457.57, 0.0756390
4461.41, 0.0755100
4465.25, 0.0753160
4469.1, 0.0752520
4472.95, 0.0752520
4476.82, 0.0751870
4480.69, 0.0751220
4484.56, 0.0751870
4488.44, 0.0750580
4492.33, 0.0749290
4496.23, 0.0749930
4500.13, 0.0749930
4504.04, 0.0749290
4507.96, 0.0748640
4511.88, 0.0748640
4515.81, 0.0748640
4519.75, 0.0748640
4523.69, 0.0747990
4527.65, 0.0747350
4531.6, 0.0747350
4535.57, 0.0747350
4539.54, 0.0747350
4543.52, 0.0747350
4547.5, 0.0747350
4551.5, 0.0746700
4555.5, 0.0747350
4559.5, 0.0747350
4563.52, 0.0747350
4567.54, 0.0747350
4571.56, 0.0747350
4575.6, 0.0746700
4579.64, 0.0746060
4583.69, 0.0746060
4587.75, 0.0746700
4591.81, 0.0747350
4595.88, 0.0747990
4599.96, 0.0749290
4604.04, 0.0749930
4608.14, 0.0750580
4612.24, 0.0751870
4616.34, 0.0753160
4620.46, 0.0754450
4624.58, 0.0755750
4628.71, 0.0756390
4632.84, 0.0757040
4636.99, 0.0757680
4641.14, 0.0758330
4645.3, 0.0759620
4649.47, 0.0760270
4653.64, 0.0760910
4657.82, 0.0762200
4662.01, 0.0763500
4666.21, 0.0764140
4670.41, 0.0764790
4674.62, 0.0765430
4678.84, 0.0766730
4683.07, 0.0766730
4687.3, 0.0767370
4691.54, 0.0766730
4695.79, 0.0768020
4700.05, 0.0769310
4704.31, 0.0769960
4708.59, 0.0770600
4712.87, 0.0771890
4717.15, 0.0772540
4721.45, 0.0773190
4725.76, 0.0773830
4730.07, 0.0775120
4734.39, 0.0777060
4738.72, 0.0778350
4743.05, 0.0779000
4747.39, 0.0779000
4751.75, 0.0779000
4756.1, 0.0778350
4760.47, 0.0778350
4764.85, 0.0777710
4769.23, 0.0777710
4773.62, 0.0778350
4778.02, 0.0779000
4782.43, 0.0777710
4786.85, 0.0776420
4791.27, 0.0775120
4795.7, 0.0775770
4800.14, 0.0775770
4804.59, 0.0775770
4809.05, 0.0776420
4813.51, 0.0777060
4817.99, 0.0777060
4822.47, 0.0778350
4826.96, 0.0780940
4831.46, 0.0782870
4835.96, 0.0784170
4840.48, 0.0785460
4845.0, 0.0786750
4849.54, 0.0788040
4854.08, 0.0788690
4858.63, 0.0789330
4863.18, 0.0789980
4867.75, 0.0790630
4872.33, 0.0789330
4876.91, 0.0788040
4881.5, 0.0787400
4886.1, 0.0786750
4890.71, 0.0787400
4895.33, 0.0788040
4899.96, 0.0788040
4904.59, 0.0786750
4909.24, 0.0787400
4913.89, 0.0788690
4918.55, 0.0789980
4923.22, 0.0790630
4927.9, 0.0790630
4932.59, 0.0791920
4937.29, 0.0795150
4942.0, 0.0797730
4946.71, 0.0799670
4951.44, 0.0802250
4956.17, 0.0804840
4960.91, 0.0806770
4965.67, 0.0809360
4970.43, 0.0811300
4975.2, 0.0812590
4979.98, 0.0813230
4984.76, 0.0814530
4989.56, 0.0815170
4994.37, 0.0816460
4999.18, 0.0818400
5004.01, 0.0820340
5008.84, 0.0819690
5013.69, 0.0820340
5018.54, 0.0824210
5023.4, 0.0825510
5028.28, 0.0825510
5033.16, 0.0825510
5038.05, 0.0826150
5042.95, 0.0828740
5047.86, 0.0830030
5052.78, 0.0831320
5057.71, 0.0831970
5062.65, 0.0831970
5067.6, 0.0832610
5072.56, 0.0834550
5077.53, 0.0836490
5082.5, 0.0837130
5087.49, 0.0837780
5092.49, 0.0839720
5097.5, 0.0841650
5102.51, 0.0842300
5107.54, 0.0843590
5112.58, 0.0844880
5117.62, 0.0845530
5122.68, 0.0848110
5127.75, 0.0849410
5132.82, 0.0848110
5137.91, 0.0848110
5143.01, 0.0851340
5148.12, 0.0853930
5153.23, 0.0853280
5158.36, 0.0851990
5163.5, 0.0852640
5168.65, 0.0854570
5173.81, 0.0854570
5178.98, 0.0855220
5184.15, 0.0855870
5189.34, 0.0854570
5194.54, 0.0854570
5199.75, 0.0857160
5204.98, 0.0857800
5210.21, 0.0858450
5215.45, 0.0858450
5220.7, 0.0856510
5225.96, 0.0855870
5231.23, 0.0856510
5236.52, 0.0857800
5241.81, 0.0857160
5247.12, 0.0855870
5252.44, 0.0855870
5257.76, 0.0855220
5263.1, 0.0854570
5268.45, 0.0853930
5273.81, 0.0853930
5279.18, 0.0852640
5284.56, 0.0850700
5289.95, 0.0852640
5295.36, 0.0853280
5300.77, 0.0851340
5306.2, 0.0848760
5311.63, 0.0846820
5317.08, 0.0845530
5322.54, 0.0844880
5328.01, 0.0844240
5333.49, 0.0842300
5338.98, 0.0841010
5344.49, 0.0842300
5350.0, 0.0844880
5355.53, 0.0841650
5361.07, 0.0836490
5366.62, 0.0835200
5372.18, 0.0834550
5377.75, 0.0833900
5383.34, 0.0831320
5388.93, 0.0830030
5394.54, 0.0829380
5400.16, 0.0828090
5405.79, 0.0827440
5411.44, 0.0825510
5417.09, 0.0827440
5422.76, 0.0830030
5428.43, 0.0822280
5434.12, 0.0817760
5439.83, 0.0815820
5445.54, 0.0813880
5451.26, 0.0811940
5457.0, 0.0811940
5462.75, 0.0812590
5468.52, 0.0810000
5474.29, 0.0806770
5480.08, 0.0804840
5485.88, 0.0800960
5491.69, 0.0798380
5497.51, 0.0795790
5503.35, 0.0793210
5509.2, 0.0789980
5515.06, 0.0788690
5520.93, 0.0787400
5526.82, 0.0784170
5532.71, 0.0780290
5538.63, 0.0777710
5544.55, 0.0775120
5550.49, 0.0775120
5556.44, 0.0774480
5562.4, 0.0770600
5568.37, 0.0766730
5574.36, 0.0766730
5580.36, 0.0764790
5586.37, 0.0758330
5592.4, 0.0753810
5598.44, 0.0751870
5604.49, 0.0748640
5610.56, 0.0745410
5616.63, 0.0742180
5622.73, 0.0738950
5628.83, 0.0735720
5634.95, 0.0735080
5641.08, 0.0738310
5647.23, 0.0733140
5653.39, 0.0725390
5659.56, 0.0720220
5665.74, 0.0715700
5671.94, 0.0715700
5678.15, 0.0713110
5684.38, 0.0707300
5690.62, 0.0704720
5696.87, 0.0700840
5703.14, 0.0698260
5709.42, 0.0700190
5715.72, 0.0696970
5722.03, 0.0691800
5728.35, 0.0687280
5734.69, 0.0683400
5741.03, 0.0682750
5747.4, 0.0682750
5753.78, 0.0676940
5760.17, 0.0679520
5766.58, 0.0685340
5773.0, 0.0675000
5779.44, 0.0666610
5785.88, 0.0663380
5792.35, 0.0660790
5798.83, 0.0660150
5805.32, 0.0658210
5811.83, 0.0657560
5818.35, 0.0664020
5824.89, 0.0664020
5831.45, 0.0655630
5838.01, 0.0649810
5844.59, 0.0646580
5851.19, 0.0644000
5857.8, 0.0645290
5864.43, 0.0645290
5871.07, 0.0643350
5877.73, 0.0652400
5884.4, 0.0651100
5891.09, 0.0644640
5897.79, 0.0644640
5904.5, 0.0633660
5911.23, 0.0627850
5917.98, 0.0627200
5924.75, 0.0626560
5931.53, 0.0631730
5938.32, 0.0634960
5945.13, 0.0623330
5951.96, 0.0616220
5958.8, 0.0612990
5965.65, 0.0614290
5972.53, 0.0609120
5979.42, 0.0603300
5986.32, 0.0602660
5993.24, 0.0596850
6000.18, 0.0587160
6007.13, 0.0582630
6014.1, 0.0578760
6021.08, 0.0571010
6028.09, 0.0564550
6035.1, 0.0560670
6042.14, 0.0566490
6049.19, 0.0573590
6056.25, 0.0560030
6063.34, 0.0553570
6070.44, 0.0558730
6077.55, 0.0558730
6084.69, 0.0554210
6091.84, 0.0555510
6099.0, 0.0560670
6106.19, 0.0571010
6113.39, 0.0582630
6120.61, 0.0581990
6127.84, 0.0582630
6135.09, 0.0590390
6142.36, 0.0598780
6149.65, 0.0605240
6156.95, 0.0614290
6164.27, 0.0620100
6171.61, 0.0622680
6178.97, 0.0634960
6186.34, 0.0645940
6193.73, 0.0645290
6201.14, 0.0648520
6208.57, 0.0656270
6216.01, 0.0664020
6223.47, 0.0669840
6230.95, 0.0676300
6238.45, 0.0684050
6245.97, 0.0689210
6253.5, 0.0693740
6261.06, 0.0699550
6268.63, 0.0706650
6276.21, 0.0711820
6283.82, 0.0716990
6291.45, 0.0722160
6299.1, 0.0727970
6306.76, 0.0732490
6314.44, 0.0737010
6322.14, 0.0741530
6329.86, 0.0746060
6337.6, 0.0758330
6345.35, 0.0769310
6353.13, 0.0764790
6360.92, 0.0766080
6368.74, 0.0773830
6376.57, 0.0773830
6384.43, 0.0773190
6392.3, 0.0775770
6400.19, 0.0780940
6408.1, 0.0800960
6416.03, 0.0811940
6423.98, 0.0798380
6431.95, 0.0793210
6439.94, 0.0791270
6447.95, 0.0790630
6455.98, 0.0789980
6464.03, 0.0790630
6472.1, 0.0796440
6480.19, 0.0802250
6488.31, 0.0811300
6496.44, 0.0807420
6504.59, 0.0791270
6512.76, 0.0786100
6520.95, 0.0786100
6529.16, 0.0776420
6537.4, 0.0769960
6545.65, 0.0768020
6553.92, 0.0764790
6562.22, 0.0761560
6570.54, 0.0762200
6578.88, 0.0751870
6587.23, 0.0744120
6595.61, 0.0737010
6604.02, 0.0727320
6612.44, 0.0720860
6620.89, 0.0715700
6629.35, 0.0719570
6637.84, 0.0718930
6646.35, 0.0699550
6654.88, 0.0685980
6663.44, 0.0681460
6672.01, 0.0680820
6680.61, 0.0679520
6689.23, 0.0673070
6697.88, 0.0669840
6706.54, 0.0675000
6715.23, 0.0678230
6723.94, 0.0678230
6732.67, 0.0678230
6741.42, 0.0681460
6750.2, 0.0685980
6759.0, 0.0690510
6767.82, 0.0698260
6776.67, 0.0707300
6785.54, 0.0719570
6794.44, 0.0726030
6803.35, 0.0724090
6812.29, 0.0729260
6821.26, 0.0741530
6830.24, 0.0751220
6839.25, 0.0753810
6848.29, 0.0764140
6857.35, 0.0781580
6866.43, 0.0789980
6875.54, 0.0784810
6884.67, 0.0787400
6893.82, 0.0791920
6903.0, 0.0797730
6912.2, 0.0800960
6921.43, 0.0802250
6930.69, 0.0805480
6939.96, 0.0810000
6949.27, 0.0817110
6958.59, 0.0826800
6967.95, 0.0825510
6977.33, 0.0823570
6986.73, 0.0827440
6996.16, 0.0831320
7005.61, 0.0831970
7015.09, 0.0834550
7024.6, 0.0836490
7034.13, 0.0839720
7043.69, 0.0847470
7053.27, 0.0845530
7062.88, 0.0841010
7072.52, 0.0840360
7082.18, 0.0842300
7091.87, 0.0843590
7101.58, 0.0844240
7111.32, 0.0846180
7121.09, 0.0848110
7130.88, 0.0848760
7140.71, 0.0851990
7150.56, 0.0855220
7160.43, 0.0857160
7170.33, 0.0859740
7180.27, 0.0856510
7190.23, 0.0854570
7200.21, 0.0857160
7210.23, 0.0861030
7220.27, 0.0860390
7230.34, 0.0859100
7240.44, 0.0859100
7250.56, 0.0860390
7260.72, 0.0861680
7270.9, 0.0864910
7281.12, 0.0866200
7291.36, 0.0864260
7301.63, 0.0864260
7311.93, 0.0865550
7322.25, 0.0866200
7332.61, 0.0866850
7343.0, 0.0866200
7353.41, 0.0865550
7363.86, 0.0866200
7374.33, 0.0868780
7384.83, 0.0870080
7395.37, 0.0870720
7405.93, 0.0872010
7416.53, 0.0873310
7427.15, 0.0875240
7437.81, 0.0877830
7448.5, 0.0878470
7459.22, 0.0879770
7469.96, 0.0879770
7480.74, 0.0880410
7491.55, 0.0881060
7502.39, 0.0881700
7513.27, 0.0882990
7524.17, 0.0882990
7535.11, 0.0882350
7546.08, 0.0883640
7557.08, 0.0884930
7568.11, 0.0886870
7579.17, 0.0888810
7590.27, 0.0892040
7601.4, 0.0895270
7612.56, 0.0896560
7623.76, 0.0897850
7634.98, 0.0899140
7646.24, 0.0899790
7657.54, 0.0901080
7668.87, 0.0903020
7680.23, 0.0905600
7691.62, 0.0908190
7703.05, 0.0910120
7714.51, 0.0912710
7726.01, 0.0917880
7737.54, 0.0921100
7749.11, 0.0923690
7760.71, 0.0926920
7772.35, 0.0930790
7784.02, 0.0933380
7795.72, 0.0935960
7807.46, 0.0939840
7819.23, 0.0945000
7831.04, 0.0950170
7842.89, 0.0955340
7854.77, 0.0959860
7866.69, 0.0965030
7878.65, 0.0972130
7890.64, 0.0978590
7902.67, 0.0985050
7914.74, 0.0992800
7926.84, 0.100056
7938.98, 0.100766
7951.16, 0.101412
7963.37, 0.102058
7975.62, 0.102768
7987.91, 0.103544
8000.24, 0.104254
8012.6, 0.105029
8025.01, 0.105998
8037.45, 0.106773
8049.93, 0.107419
8062.45, 0.108130
8075.01, 0.108582
8087.61, 0.108969
8100.24, 0.109034
8112.91, 0.108840
8125.63, 0.108517
8138.39, 0.107936
8151.18, 0.107225
8164.02, 0.106386
8176.9, 0.105481
8189.81, 0.104706
8202.77, 0.104060
8215.77, 0.103673
8228.82, 0.103350
8241.9, 0.103027
8255.02, 0.102833
8268.19, 0.102768
8281.39, 0.102510
8294.65, 0.102252
8307.94, 0.101993
8321.28, 0.101800
8334.66, 0.101412
8348.08, 0.100895
8361.54, 0.100508
8375.05, 0.100378
8388.6, 0.100249
8402.2, 0.0999260
8415.84, 0.0995390
8429.52, 0.0992160
8443.25, 0.0986340
8457.02, 0.0978590
8470.84, 0.0968260
8484.7, 0.0958570
8498.61, 0.0948230
8512.57, 0.0935960
8526.57, 0.0923690
8540.62, 0.0914000
8554.71, 0.0904960
8568.85, 0.0897210
8583.04, 0.0891390
8597.27, 0.0886220
8611.55, 0.0882350
8625.88, 0.0882990
8640.26, 0.0886870
8654.68, 0.0893330
8669.16, 0.0901080
8683.68, 0.0904960
8698.25, 0.0901730
8712.87, 0.0893980
8727.53, 0.0882350
8742.25, 0.0871370
8757.02, 0.0863620
8771.83, 0.0856510
8786.7, 0.0848760
8801.62, 0.0840360
8816.59, 0.0831970
8831.61, 0.0822920
8846.68, 0.0812590
8861.8, 0.0802900
8876.97, 0.0795790
8892.2, 0.0789980
8907.48, 0.0784170
8922.81, 0.0779640
8938.2, 0.0775120
8953.63, 0.0771890
8969.13, 0.0769310
8984.67, 0.0766080
9000.27, 0.0762850
9015.92, 0.0759620
9031.63, 0.0758970
9047.39, 0.0761560
9063.21, 0.0764790
9079.08, 0.0768660
9095.01, 0.0773190
9111.0, 0.0776420
9127.04, 0.0778350
9143.13, 0.0784170
9159.28, 0.0791270
9175.49, 0.0795150
9191.76, 0.0799020
9208.09, 0.0802250
9224.47, 0.0804190
9240.92, 0.0805480
9257.42, 0.0804190
9273.98, 0.0802250
9290.6, 0.0799670
9307.28, 0.0794500
9324.02, 0.0791270
9340.82, 0.0789980
9357.68, 0.0789330
9374.6, 0.0792560
9391.58, 0.0799020
9408.62, 0.0806130
9425.73, 0.0815820
9442.9, 0.0828740
9460.13, 0.0843590
9477.42, 0.0859100
9494.78, 0.0878470
9512.2, 0.0902370
9529.69, 0.0927560
9547.24, 0.0952110
9564.86, 0.0971490
9582.54, 0.0983760
9600.28, 0.0986990
9618.1, 0.0976660
9635.97, 0.0950820
9653.92, 0.0913350
9671.93, 0.0866200
9690.01, 0.0813880
9708.16, 0.0760910
9726.37, 0.0722160
9744.65, 0.0720860
9763.0, 0.0748640
9781.43, 0.0771250
9799.92, 0.0772540
9818.48, 0.0756390
9837.1, 0.0731200
9855.8, 0.0706650
9874.58, 0.0684050
9893.42, 0.0665960
9912.34, 0.0652400
9931.33, 0.0641410
9950.39, 0.0632370
9969.52, 0.0624620
9988.74, 0.0619450
10008.0, 0.0615580
10027.4, 0.0610410
10046.8, 0.0607180
10066.3, 0.0605240
10085.9, 0.0603950
10105.6, 0.0605240
10125.3, 0.0603950
10145.1, 0.0602010
10165.0, 0.0602660
10185.0, 0.0602010
10205.0, 0.0601370
10225.2, 0.0602010
10245.4, 0.0602660
10265.7, 0.0602010
10286.0, 0.0604600
10306.5, 0.0603950
10327.0, 0.0602010
10347.6, 0.0604600
10368.3, 0.0608470
10389.1, 0.0607830
10409.9, 0.0605890
10430.9, 0.0607830
10451.9, 0.0609760
10473.0, 0.0610410
10494.2, 0.0612350
10515.5, 0.0614290
10536.9, 0.0612990
10558.4, 0.0611700
10579.9, 0.0612990
10601.5, 0.0615580
10623.3, 0.0618810
10645.1, 0.0622040
10667.0, 0.0623330
10689.0, 0.0625270
10711.1, 0.0627200
10733.2, 0.0629790
10755.5, 0.0631730
10777.9, 0.0631730
10800.3, 0.0632370
10822.9, 0.0633660
10845.5, 0.0634310
10868.2, 0.0634960
10891.1, 0.0635600
10914.0, 0.0635600
10937.0, 0.0637540
10960.2, 0.0636890
10983.4, 0.0638180
11006.7, 0.0641410
11030.1, 0.0643350
11053.6, 0.0645940
11077.3, 0.0647230
11101.0, 0.0649170
11124.8, 0.0651750
11148.7, 0.0651100
11172.7, 0.0650460
11196.9, 0.0651100
11221.1, 0.0652400
11245.4, 0.0653040
11269.9, 0.0654330
11294.4, 0.0656270
11319.1, 0.0656920
11343.9, 0.0656270
11368.8, 0.0653690
11393.7, 0.0654330
11418.8, 0.0655630
11444.0, 0.0653040
11469.4, 0.0649170
11494.8, 0.0644000
11520.3, 0.0640770
11546.0, 0.0638830
11571.8, 0.0635600
11597.7, 0.0631080
11623.7, 0.0625910
11649.8, 0.0620740
11676.0, 0.0618160
11702.4, 0.0614290
11728.9, 0.0607830
11755.5, 0.0603950
11782.2, 0.0600720
11809.0, 0.0597490
11836.0, 0.0593620
11863.0, 0.0589090
11890.3, 0.0583280
11917.6, 0.0578110
11945.0, 0.0572950
11972.6, 0.0565840
12000.4, 0.0560030
12028.2, 0.0558730
12056.2, 0.0556150
12084.3, 0.0550340
12112.5, 0.0544520
12140.9, 0.0538710
12169.4, 0.0534840
12198.0, 0.0530960
12226.8, 0.0529020
12255.7, 0.0527080
12284.7, 0.0524500
12313.9, 0.0521920
12343.2, 0.0516750
12372.7, 0.0514170
12402.3, 0.0512870
12432.0, 0.0512870
12461.9, 0.0509640
12491.9, 0.0506410
12522.1, 0.0503830
12552.4, 0.0502540
12582.9, 0.0501250
12613.5, 0.0499310
12644.3, 0.0499310
12675.2, 0.0504480
12706.3, 0.0509640
12737.5, 0.0511580
12768.9, 0.0515460
12800.4, 0.0522560
12832.1, 0.0526440
12863.9, 0.0526440
12895.9, 0.0526440
12928.1, 0.0525150
12960.4, 0.0523210
12992.9, 0.0525790
13025.5, 0.0529020
13058.3, 0.0530310
13091.3, 0.0530960
13124.4, 0.0534840
13157.8, 0.0537420
13191.2, 0.0538060
13224.9, 0.0541940
13258.7, 0.0545820
13292.7, 0.0549050
13326.9, 0.0550980
13361.2, 0.0551630
13395.7, 0.0550980
13430.4, 0.0549050
13465.3, 0.0549050
13500.4, 0.0549690
13535.7, 0.0550980
13571.1, 0.0554210
13606.7, 0.0552920
13642.5, 0.0554210
13678.5, 0.0556800
13714.7, 0.0557440
13751.1, 0.0557440
13787.6, 0.0560670
13824.4, 0.0561960
13861.4, 0.0561960
13898.5, 0.0565190
13935.9, 0.0565840
13973.5, 0.0564550
14011.2, 0.0566490
14049.2, 0.0571010
14087.4, 0.0576180
14125.8, 0.0579400
14164.3, 0.0581340
14203.2, 0.0585220
14242.2, 0.0589090
14281.4, 0.0592970
14320.9, 0.0598140
14360.5, 0.0602660
14400.4, 0.0606530
14440.5, 0.0614290
14480.9, 0.0621390
14521.4, 0.0623330
14562.2, 0.0631080
14603.3, 0.0639480
14644.5, 0.0644000
14686.0, 0.0652400
14727.7, 0.0662730
14769.7, 0.0673710
14811.9, 0.0687280
14854.3, 0.0697610
14897.0, 0.0694380
14939.9, 0.0684050
14983.1, 0.0667900
15026.5, 0.0645290
15070.2, 0.0620100
15114.2, 0.0599430
15158.3, 0.0583930
15202.8, 0.0575530
15247.5, 0.0569720
15292.5, 0.0564550
15337.7, 0.0562610
15383.2, 0.0569070
15429.0, 0.0574240
15475.1, 0.0580050
15521.4, 0.0587160
15568.0, 0.0594910
15614.9, 0.0601370
15662.1, 0.0611700
15709.6, 0.0626560
15757.3, 0.0638180
15805.4, 0.0650460
15853.7, 0.0661440
15902.3, 0.0660150
15951.2, 0.0651750
16000.5, 0.0642710
16050.0, 0.0633660
16099.8, 0.0623970
16150.0, 0.0617510
16200.5, 0.0620740
16251.3, 0.0631730
16302.4, 0.0644640
16353.8, 0.0658210
16405.5, 0.0670480
16457.6, 0.0683400
16510.0, 0.0693740
16562.8, 0.0699550
16615.9, 0.0700190
16669.3, 0.0705360
16723.1, 0.0719570
16777.2, 0.0735080
16831.7, 0.0747990
16886.5, 0.0755750
16941.7, 0.0757040
16997.2, 0.0752520
17053.1, 0.0741530
17109.4, 0.0730550
17166.1, 0.0718280
17223.1, 0.0701490
17280.5, 0.0691150
17338.3, 0.0687280
17396.5, 0.0683400
17455.1, 0.0680170
17514.0, 0.0678880
17573.4, 0.0676940
17633.2, 0.0673710
17693.4, 0.0670480
17754.0, 0.0669190
17815.0, 0.0668540
17876.4, 0.0668540
17938.3, 0.0669190
18000.5, 0.0672420
18063.3, 0.0679520
18126.4, 0.0684690
18190.0, 0.0682110
18254.1, 0.0682110
18318.6, 0.0684050
18383.5, 0.0677590
18449.0, 0.0675000
18514.9, 0.0683400
18581.2, 0.0686630
18648.0, 0.0682750
18715.4, 0.0682110
18783.2, 0.0687280
18851.5, 0.0683400
18920.3, 0.0681460
18989.6, 0.0686630
19059.4, 0.0679520
19129.7, 0.0676300
19200.6, 0.0681460
19272.0, 0.0675650
19343.9, 0.0665310
19416.3, 0.0656270
19489.3, 0.0655630
19562.8, 0.0654330
19637.0, 0.0651100
19711.6, 0.0640770
19786.8, 0.0635600
19862.6, 0.0632370
19939.0, 0.0635600
20016.0, 0.0641410
20093.6, 0.0631080
20171.8, 0.0623970
20250.6, 0.0634310
20330.0, 0.0634310
20410.0, 0.0620740
20490.7, 0.0607830
20572.0, 0.0612990
20654.0, 0.0619450
20736.6, 0.0612990
20819.9, 0.0610410
20903.8, 0.0602660
20988.5, 0.0589740
21073.8, 0.0582630
21159.8, 0.0580050
21246.5, 0.0585860
21334.0, 0.0584570
21422.1, 0.0569720
21511.0, 0.0561960
21600.7, 0.0538710
21691.0, 0.0515460
21782.1, 0.0521270
21874.0, 0.0518690
21966.7, 0.0492850
22060.2, 0.0465720
22154.5, 0.0455380
22249.6, 0.0443110
22345.5, 0.0412750
22442.2, 0.0367540
22539.8, 0.0334590
22638.2, 0.0296480
22737.5, 0.0264830
22837.7, 0.0319090
22938.7, 0.0514170
23040.7, 0.0736370
23143.5, 0.0891390
23247.3, 0.101864
23352.1, 0.114266
23457.7, 0.126733
23564.4, 0.139070
23672.0, 0.150632
23780.5, 0.162259
23890.1, 0.172142
24000.7, 0.181314
24112.3, 0.192747
24225.0, 0.202501
24338.7, 0.209025
24453.5, 0.217164
24569.4, 0.228597
24686.4, 0.238544
24804.5, 0.245714
24923.8, 0.239384
