Database of Origin, USGS Spectral Database
Sample Description, See USGS database for additional info
Date Added,2016-08-03 20:52:57.738662

Data ID,USGS_alm08          
Sample ID, almandine_ws477.811
Mineral Name, almandine
Material Class,Nesosilicate

Wavelength
1399.61, 0.269934
1399.99, 0.269985
1400.37, 0.270498
1400.74, 0.270190
1401.12, 0.269729
1401.5, 0.269934
1401.88, 0.270549
1402.26, 0.270549
1402.64, 0.270446
1403.02, 0.270651
1403.4, 0.270549
1403.78, 0.270293
1404.16, 0.270549
1404.54, 0.270344
1404.92, 0.270190
1405.3, 0.270395
1405.68, 0.270600
1406.06, 0.270600
1406.44, 0.270446
1406.83, 0.270344
1407.21, 0.270805
1407.59, 0.271267
1407.97, 0.270908
1408.35, 0.270703
1408.74, 0.270959
1409.12, 0.271010
1409.5, 0.271010
1409.89, 0.270805
1410.27, 0.270908
1410.65, 0.271010
1411.04, 0.270651
1411.42, 0.270857
1411.81, 0.270959
1412.19, 0.270754
1412.58, 0.270600
1412.96, 0.270857
1413.35, 0.271523
1413.73, 0.271574
1414.12, 0.271164
1414.5, 0.270959
1414.89, 0.271318
1415.28, 0.271677
1415.66, 0.271779
1416.05, 0.271472
1416.44, 0.271574
1416.82, 0.271831
1417.21, 0.272036
1417.6, 0.271985
1417.98, 0.271933
1418.37, 0.271933
1418.76, 0.272190
1419.15, 0.272241
1419.54, 0.272497
1419.93, 0.272856
1420.32, 0.272856
1420.71, 0.272805
1421.09, 0.272497
1421.48, 0.272600
1421.88, 0.272702
1422.27, 0.272805
1422.66, 0.273164
1423.05, 0.273215
1423.44, 0.273112
1423.83, 0.273266
1424.22, 0.273318
1424.61, 0.273318
1425.0, 0.273318
1425.39, 0.273471
1425.78, 0.273728
1426.18, 0.273728
1426.57, 0.273676
1426.96, 0.273881
1427.36, 0.274138
1427.75, 0.274087
1428.14, 0.274189
1428.54, 0.274240
1428.93, 0.274394
1429.32, 0.274497
1429.72, 0.274702
1430.11, 0.274599
1430.51, 0.274753
1430.9, 0.275009
1431.3, 0.274753
1431.69, 0.274804
1432.09, 0.275163
1432.48, 0.275009
1432.88, 0.274804
1433.28, 0.275214
1433.67, 0.275522
1434.07, 0.275573
1434.46, 0.275471
1434.86, 0.275522
1435.26, 0.275625
1435.66, 0.275778
1436.05, 0.275625
1436.45, 0.275676
1436.85, 0.275932
1437.25, 0.275984
1437.65, 0.276137
1438.05, 0.276240
1438.44, 0.276445
1438.84, 0.276650
1439.24, 0.276855
1439.64, 0.277009
1440.04, 0.276906
1440.44, 0.276547
1440.84, 0.276445
1441.24, 0.276753
1441.65, 0.276958
1442.05, 0.277009
1442.45, 0.277317
1442.85, 0.277265
1443.25, 0.277573
1443.65, 0.277675
1444.05, 0.277470
1444.46, 0.277265
1444.86, 0.277573
1445.26, 0.278034
1445.67, 0.278239
1446.07, 0.278188
1446.47, 0.278086
1446.88, 0.278034
1447.28, 0.277932
1447.68, 0.277932
1448.09, 0.278086
1448.49, 0.278444
1448.9, 0.278598
1449.3, 0.278650
1449.71, 0.278803
1450.11, 0.278701
1450.52, 0.278701
1450.93, 0.278752
1451.33, 0.278957
1451.74, 0.279111
1452.14, 0.279367
1452.55, 0.279521
1452.96, 0.279624
1453.36, 0.279624
1453.77, 0.279675
1454.18, 0.279624
1454.59, 0.279983
1455.0, 0.280188
1455.41, 0.279880
1455.81, 0.279572
1456.22, 0.279521
1456.63, 0.279880
1457.04, 0.280341
1457.45, 0.280444
1457.86, 0.280444
1458.27, 0.280341
1458.68, 0.280239
1459.09, 0.280444
1459.5, 0.280752
1459.91, 0.280803
1460.32, 0.280752
1460.74, 0.280803
1461.15, 0.280854
1461.56, 0.280803
1461.97, 0.281059
1462.39, 0.281110
1462.8, 0.281213
1463.21, 0.281213
1463.62, 0.281162
1464.04, 0.281059
1464.45, 0.281213
1464.86, 0.281572
1465.28, 0.281726
1465.69, 0.281572
1466.11, 0.281367
1466.52, 0.281418
1466.94, 0.281828
1467.35, 0.282136
1467.77, 0.282136
1468.18, 0.282238
1468.6, 0.282290
1469.02, 0.282187
1469.43, 0.282238
1469.85, 0.282341
1470.27, 0.282392
1470.68, 0.282290
1471.1, 0.282392
1471.52, 0.282802
1471.94, 0.282956
1472.35, 0.282802
1472.77, 0.282905
1473.19, 0.282956
1473.61, 0.283007
1474.03, 0.283059
1474.45, 0.283264
1474.87, 0.283469
1475.29, 0.283315
1475.71, 0.283418
1476.13, 0.283623
1476.55, 0.283674
1476.97, 0.283828
1477.39, 0.283828
1477.81, 0.284033
1478.23, 0.284084
1478.65, 0.284084
1479.07, 0.284340
1479.5, 0.284751
1479.92, 0.284751
1480.34, 0.284597
1480.76, 0.284597
1481.19, 0.285007
1481.61, 0.285109
1482.03, 0.285109
1482.46, 0.284956
1482.88, 0.285058
1483.31, 0.285417
1483.73, 0.285571
1484.16, 0.285622
1484.58, 0.285417
1485.01, 0.285571
1485.43, 0.285571
1485.86, 0.285673
1486.28, 0.285827
1486.71, 0.286032
1487.14, 0.286442
1487.56, 0.286801
1487.99, 0.286391
1488.42, 0.286135
1488.84, 0.286442
1489.27, 0.286545
1489.7, 0.286442
1490.13, 0.286186
1490.56, 0.286648
1490.98, 0.287058
1491.41, 0.287006
1491.84, 0.287058
1492.27, 0.287365
1492.7, 0.287365
1493.13, 0.287519
1493.56, 0.287775
1493.99, 0.287827
1494.42, 0.287775
1494.85, 0.287827
1495.29, 0.287929
1495.72, 0.288134
1496.15, 0.288339
1496.58, 0.288391
1497.01, 0.288391
1497.44, 0.288288
1497.88, 0.288134
1498.31, 0.288288
1498.74, 0.288750
1499.18, 0.289006
1499.61, 0.289057
1500.04, 0.288852
1500.48, 0.288545
1500.91, 0.288801
1501.35, 0.289006
1501.78, 0.289108
1502.22, 0.289108
1502.65, 0.289262
1503.09, 0.289519
1503.53, 0.289519
1503.96, 0.289262
1504.4, 0.289057
1504.83, 0.289211
1505.27, 0.289570
1505.71, 0.289621
1506.15, 0.289724
1506.58, 0.289826
1507.02, 0.289775
1507.46, 0.290031
1507.9, 0.290236
1508.34, 0.290083
1508.78, 0.289980
1509.21, 0.289724
1509.66, 0.289929
1510.09, 0.290134
1510.53, 0.290185
1510.97, 0.290083
1511.42, 0.290185
1511.86, 0.290236
1512.3, 0.290493
1512.74, 0.290800
1513.18, 0.290800
1513.62, 0.290698
1514.06, 0.290800
1514.51, 0.290647
1514.95, 0.290493
1515.39, 0.290493
1515.83, 0.290852
1516.28, 0.291005
1516.72, 0.290954
1517.16, 0.291211
1517.61, 0.291262
1518.05, 0.291108
1518.5, 0.291108
1518.94, 0.290954
1519.39, 0.291364
1519.83, 0.291672
1520.28, 0.291416
1520.73, 0.291416
1521.17, 0.291467
1521.62, 0.291262
1522.07, 0.291211
1522.51, 0.291569
1522.96, 0.291723
1523.41, 0.291467
1523.85, 0.291262
1524.3, 0.291467
1524.75, 0.291672
1525.2, 0.291826
1525.65, 0.291877
1526.1, 0.291826
1526.55, 0.291672
1527.0, 0.291723
1527.45, 0.291928
1527.9, 0.291928
1528.35, 0.292082
1528.8, 0.291928
1529.25, 0.291621
1529.7, 0.291826
1530.15, 0.292082
1530.6, 0.292031
1531.05, 0.291980
1531.51, 0.292185
1531.96, 0.292082
1532.41, 0.292031
1532.87, 0.292441
1533.32, 0.292595
1533.77, 0.292544
1534.23, 0.292544
1534.68, 0.292441
1535.14, 0.292390
1535.59, 0.292697
1536.05, 0.292749
1536.5, 0.292492
1536.96, 0.292544
1537.41, 0.292749
1537.87, 0.292595
1538.32, 0.292544
1538.78, 0.292749
1539.24, 0.293159
1539.7, 0.293313
1540.15, 0.293261
1540.61, 0.293210
1541.07, 0.293056
1541.53, 0.293108
1541.98, 0.293056
1542.44, 0.293210
1542.9, 0.293466
1543.36, 0.293415
1543.82, 0.293313
1544.28, 0.293313
1544.74, 0.293415
1545.2, 0.293415
1545.66, 0.293518
1546.12, 0.293518
1546.59, 0.293466
1547.05, 0.293415
1547.51, 0.293466
1547.97, 0.293620
1548.43, 0.293774
1548.9, 0.293620
1549.36, 0.293466
1549.82, 0.293620
1550.29, 0.293877
1550.75, 0.293825
1551.21, 0.293723
1551.68, 0.293671
1552.14, 0.293928
1552.61, 0.294082
1553.07, 0.294235
1553.54, 0.294235
1554.0, 0.294235
1554.47, 0.294235
1554.93, 0.294338
1555.4, 0.294441
1555.87, 0.294389
1556.34, 0.294184
1556.8, 0.294082
1557.27, 0.294030
1557.74, 0.294082
1558.21, 0.294235
1558.68, 0.294594
1559.14, 0.294748
1559.61, 0.294748
1560.08, 0.294799
1560.55, 0.294799
1561.02, 0.294748
1561.49, 0.294799
1561.96, 0.294594
1562.43, 0.294389
1562.9, 0.294543
1563.38, 0.294748
1563.85, 0.294646
1564.32, 0.294594
1564.79, 0.294594
1565.26, 0.294646
1565.74, 0.294748
1566.21, 0.294953
1566.68, 0.294953
1567.16, 0.295056
1567.63, 0.295107
1568.1, 0.295107
1568.58, 0.295056
1569.05, 0.294799
1569.53, 0.294697
1570.0, 0.294902
1570.48, 0.294697
1570.96, 0.294748
1571.43, 0.294953
1571.91, 0.294799
1572.39, 0.294697
1572.86, 0.294697
1573.34, 0.294748
1573.82, 0.294902
1574.3, 0.295107
1574.77, 0.294953
1575.25, 0.294748
1575.73, 0.294646
1576.21, 0.294799
1576.69, 0.294799
1577.17, 0.294799
1577.65, 0.294902
1578.13, 0.294851
1578.61, 0.294902
1579.09, 0.294799
1579.57, 0.294851
1580.05, 0.294851
1580.54, 0.294748
1581.02, 0.294646
1581.5, 0.294543
1581.98, 0.294799
1582.47, 0.294748
1582.95, 0.294748
1583.43, 0.294646
1583.92, 0.294543
1584.4, 0.294646
1584.88, 0.294594
1585.37, 0.294492
1585.85, 0.294492
1586.34, 0.294441
1586.82, 0.294441
1587.31, 0.294646
1587.8, 0.294646
1588.28, 0.294441
1588.77, 0.294441
1589.26, 0.294799
1589.74, 0.294697
1590.23, 0.294646
1590.72, 0.294646
1591.21, 0.294697
1591.7, 0.294594
1592.19, 0.294492
1592.67, 0.294287
1593.16, 0.294287
1593.65, 0.294441
1594.14, 0.294543
1594.63, 0.294543
1595.12, 0.294441
1595.61, 0.294441
1596.11, 0.294492
1596.6, 0.294492
1597.09, 0.294389
1597.58, 0.294235
1598.08, 0.294287
1598.57, 0.294492
1599.06, 0.294851
1599.55, 0.294748
1600.05, 0.294594
1600.54, 0.294338
1601.04, 0.294338
1601.53, 0.294441
1602.03, 0.294594
1602.52, 0.294492
1603.02, 0.294441
1603.51, 0.294543
1604.01, 0.294902
1604.5, 0.294902
1605.0, 0.294697
1605.5, 0.294646
1606.0, 0.294851
1606.49, 0.294748
1606.99, 0.294748
1607.49, 0.294748
1607.99, 0.294902
1608.49, 0.295004
1608.99, 0.294851
1609.49, 0.294697
1609.99, 0.294748
1610.49, 0.294748
1610.99, 0.294799
1611.49, 0.294902
1611.99, 0.294697
1612.49, 0.294338
1612.99, 0.294646
1613.49, 0.294748
1614.0, 0.294594
1614.5, 0.294697
1615.0, 0.294799
1615.51, 0.294851
1616.01, 0.294851
1616.51, 0.294697
1617.02, 0.294799
1617.52, 0.294902
1618.03, 0.294953
1618.53, 0.294902
1619.04, 0.294902
1619.54, 0.294799
1620.05, 0.295004
1620.55, 0.295107
1621.06, 0.295107
1621.57, 0.295158
1622.08, 0.294953
1622.58, 0.294851
1623.09, 0.294953
1623.6, 0.294953
1624.11, 0.295004
1624.62, 0.294953
1625.13, 0.295056
1625.64, 0.295056
1626.15, 0.295004
1626.66, 0.294902
1627.17, 0.294953
1627.68, 0.294799
1628.19, 0.294646
1628.7, 0.294646
1629.21, 0.294748
1629.72, 0.294799
1630.24, 0.294799
1630.75, 0.294594
1631.26, 0.294492
1631.78, 0.294697
1632.29, 0.294646
1632.8, 0.294851
1633.32, 0.295210
1633.83, 0.294902
1634.35, 0.294492
1634.86, 0.294543
1635.38, 0.294748
1635.9, 0.294646
1636.41, 0.294646
1636.93, 0.294646
1637.45, 0.294697
1637.96, 0.294851
1638.48, 0.294799
1639.0, 0.294594
1639.52, 0.294646
1640.04, 0.294543
1640.56, 0.294389
1641.08, 0.294338
1641.59, 0.294543
1642.11, 0.294646
1642.63, 0.294799
1643.16, 0.294799
1643.68, 0.294748
1644.2, 0.294697
1644.72, 0.294543
1645.24, 0.294287
1645.76, 0.294287
1646.29, 0.294441
1646.81, 0.294389
1647.33, 0.294389
1647.86, 0.294543
1648.38, 0.294441
1648.9, 0.294338
1649.43, 0.294235
1649.95, 0.294287
1650.48, 0.294235
1651.0, 0.293928
1651.53, 0.293928
1652.06, 0.293979
1652.58, 0.293928
1653.11, 0.293928
1653.64, 0.293979
1654.17, 0.294030
1654.69, 0.294030
1655.22, 0.293928
1655.75, 0.293928
1656.28, 0.294030
1656.81, 0.294235
1657.34, 0.294389
1657.87, 0.294235
1658.4, 0.294030
1658.93, 0.293928
1659.46, 0.293979
1659.99, 0.293979
1660.52, 0.294133
1661.05, 0.294030
1661.59, 0.293723
1662.12, 0.293723
1662.65, 0.293877
1663.19, 0.293774
1663.72, 0.293723
1664.26, 0.293928
1664.79, 0.294082
1665.32, 0.293877
1665.86, 0.293723
1666.39, 0.293723
1666.93, 0.293877
1667.47, 0.293979
1668.0, 0.293979
1668.54, 0.293928
1669.08, 0.293979
1669.61, 0.293979
1670.15, 0.293928
1670.69, 0.293774
1671.23, 0.293825
1671.77, 0.293877
1672.31, 0.293979
1672.85, 0.294184
1673.39, 0.294184
1673.93, 0.294030
1674.47, 0.294082
1675.01, 0.294338
1675.55, 0.294338
1676.09, 0.294133
1676.64, 0.294287
1677.18, 0.294235
1677.72, 0.294082
1678.26, 0.294184
1678.81, 0.294338
1679.35, 0.294287
1679.89, 0.294235
1680.44, 0.294235
1680.98, 0.294235
1681.53, 0.294235
1682.07, 0.294441
1682.62, 0.294389
1683.17, 0.294235
1683.71, 0.294287
1684.26, 0.294543
1684.81, 0.294646
1685.36, 0.294492
1685.9, 0.294338
1686.45, 0.294389
1687.0, 0.294492
1687.55, 0.294543
1688.1, 0.294543
1688.65, 0.294492
1689.2, 0.294594
1689.75, 0.294441
1690.3, 0.294441
1690.85, 0.294646
1691.41, 0.294697
1691.96, 0.294748
1692.51, 0.294953
1693.06, 0.294902
1693.61, 0.294441
1694.17, 0.294492
1694.72, 0.294748
1695.28, 0.294697
1695.83, 0.294594
1696.39, 0.294748
1696.94, 0.295056
1697.5, 0.295004
1698.05, 0.294851
1698.61, 0.294953
1699.17, 0.294953
1699.72, 0.294851
1700.28, 0.294902
1700.84, 0.295158
1701.4, 0.295210
1701.95, 0.294953
1702.51, 0.294902
1703.07, 0.295107
1703.63, 0.295261
1704.19, 0.295107
1704.75, 0.295004
1705.31, 0.295261
1705.88, 0.295466
1706.44, 0.295261
1707.0, 0.295004
1707.56, 0.294953
1708.12, 0.294953
1708.69, 0.295261
1709.25, 0.295312
1709.81, 0.295363
1710.38, 0.295261
1710.94, 0.295261
1711.51, 0.295415
1712.07, 0.295415
1712.64, 0.295363
1713.2, 0.295312
1713.77, 0.295261
1714.34, 0.295312
1714.9, 0.295466
1715.47, 0.295415
1716.04, 0.295363
1716.61, 0.295466
1717.18, 0.295517
1717.74, 0.295517
1718.31, 0.295517
1718.88, 0.295517
1719.45, 0.295517
1720.02, 0.295466
1720.59, 0.295312
1721.17, 0.295363
1721.74, 0.295363
1722.31, 0.295363
1722.88, 0.295517
1723.45, 0.295671
1724.03, 0.295722
1724.6, 0.295927
1725.18, 0.295979
1725.75, 0.295722
1726.33, 0.295671
1726.9, 0.295671
1727.48, 0.295774
1728.05, 0.295876
1728.63, 0.295927
1729.2, 0.296030
1729.78, 0.295876
1730.36, 0.295722
1730.94, 0.296030
1731.51, 0.296132
1732.09, 0.295825
1732.67, 0.295722
1733.25, 0.296030
1733.83, 0.296184
1734.41, 0.296286
1734.99, 0.296389
1735.57, 0.296184
1736.15, 0.296184
1736.73, 0.296235
1737.32, 0.296030
1737.9, 0.296081
1738.48, 0.296235
1739.07, 0.296440
1739.65, 0.296440
1740.23, 0.296440
1740.82, 0.296543
1741.4, 0.296645
1741.99, 0.296850
1742.57, 0.297107
1743.16, 0.297055
1743.74, 0.296901
1744.33, 0.297004
1744.92, 0.297107
1745.51, 0.297055
1746.09, 0.297055
1746.68, 0.297312
1747.27, 0.297414
1747.86, 0.297465
1748.45, 0.297568
1749.04, 0.297670
1749.63, 0.297722
1750.22, 0.297876
1750.81, 0.297722
1751.4, 0.297722
1751.99, 0.297773
1752.59, 0.297722
1753.18, 0.297927
1753.77, 0.298132
1754.37, 0.298029
1754.96, 0.298029
1755.56, 0.297978
1756.15, 0.298183
1756.74, 0.298337
1757.34, 0.298491
1757.94, 0.298542
1758.53, 0.298593
1759.13, 0.298747
1759.73, 0.298850
1760.32, 0.298747
1760.92, 0.298952
1761.52, 0.299106
1762.12, 0.299055
1762.72, 0.298901
1763.32, 0.298901
1763.92, 0.299106
1764.52, 0.299465
1765.12, 0.299465
1765.72, 0.299465
1766.32, 0.299670
1766.92, 0.299875
1767.53, 0.299875
1768.13, 0.299824
1768.73, 0.299824
1769.34, 0.300183
1769.94, 0.300285
1770.55, 0.300285
1771.15, 0.300234
1771.76, 0.300388
1772.36, 0.300644
1772.97, 0.300798
1773.57, 0.300798
1774.18, 0.300900
1774.79, 0.301003
1775.4, 0.300900
1776.0, 0.300952
1776.61, 0.300952
1777.22, 0.301003
1777.83, 0.301157
1778.44, 0.301157
1779.05, 0.301054
1779.66, 0.301054
1780.27, 0.301157
1780.88, 0.301362
1781.5, 0.301567
1782.11, 0.301721
1782.72, 0.301977
1783.33, 0.301926
1783.95, 0.301977
1784.56, 0.301977
1785.18, 0.301823
1785.79, 0.301823
1786.41, 0.302028
1787.02, 0.302233
1787.64, 0.302285
1788.26, 0.302439
1788.87, 0.302644
1789.49, 0.302490
1790.11, 0.302541
1790.73, 0.302490
1791.35, 0.302849
1791.96, 0.302951
1792.58, 0.302849
1793.21, 0.302797
1793.83, 0.303054
1794.45, 0.303105
1795.07, 0.303105
1795.69, 0.303208
1796.31, 0.303361
1796.93, 0.303310
1797.56, 0.303464
1798.18, 0.303566
1798.8, 0.303669
1799.43, 0.303874
1800.05, 0.303823
1800.68, 0.303925
1801.3, 0.303977
1801.93, 0.304028
1802.56, 0.304079
1803.18, 0.304079
1803.81, 0.304233
1804.44, 0.304233
1805.07, 0.304284
1805.7, 0.304387
1806.33, 0.304489
1806.95, 0.304489
1807.58, 0.304438
1808.22, 0.304541
1808.85, 0.304643
1809.48, 0.304848
1810.11, 0.305053
1810.74, 0.305156
1811.38, 0.305105
1812.01, 0.305207
1812.64, 0.305310
1813.28, 0.305361
1813.91, 0.305515
1814.55, 0.305669
1815.18, 0.305720
1815.82, 0.305822
1816.45, 0.305976
1817.09, 0.305925
1817.73, 0.306130
1818.36, 0.306386
1819.0, 0.306489
1819.64, 0.306438
1820.28, 0.306643
1820.92, 0.306745
1821.56, 0.306745
1822.2, 0.306796
1822.84, 0.306848
1823.48, 0.307053
1824.12, 0.307053
1824.76, 0.307207
1825.41, 0.307514
1826.05, 0.307771
1826.69, 0.307719
1827.34, 0.307668
1827.98, 0.308078
1828.63, 0.308335
1829.27, 0.308129
1829.92, 0.308232
1830.56, 0.308642
1831.21, 0.308693
1831.86, 0.308693
1832.5, 0.308642
1833.15, 0.308745
1833.8, 0.309001
1834.45, 0.309309
1835.1, 0.309360
1835.75, 0.309462
1836.4, 0.309770
1837.05, 0.309924
1837.7, 0.309975
1838.35, 0.309873
1839.01, 0.310026
1839.66, 0.310385
1840.31, 0.310283
1840.96, 0.310437
1841.62, 0.310898
1842.27, 0.310898
1842.93, 0.310693
1843.58, 0.310847
1844.24, 0.311052
1844.9, 0.311103
1845.55, 0.311206
1846.21, 0.311462
1846.87, 0.311872
1847.53, 0.312180
1848.18, 0.312231
1848.84, 0.311975
1849.5, 0.311923
1850.16, 0.312128
1850.82, 0.312231
1851.48, 0.312231
1852.14, 0.312436
1852.81, 0.312744
1853.47, 0.313051
1854.13, 0.313103
1854.8, 0.313000
1855.46, 0.313051
1856.12, 0.313308
1856.79, 0.313410
1857.45, 0.313461
1858.12, 0.313615
1858.79, 0.313718
1859.45, 0.314077
1860.12, 0.314231
1860.79, 0.314179
1861.46, 0.313923
1862.12, 0.314025
1862.79, 0.314282
1863.46, 0.314333
1864.13, 0.314487
1864.8, 0.314589
1865.48, 0.314743
1866.15, 0.314897
1866.82, 0.315000
1867.49, 0.315256
1868.16, 0.315153
1868.84, 0.315205
1869.51, 0.315256
1870.19, 0.315615
1870.86, 0.315717
1871.54, 0.315717
1872.21, 0.315717
1872.89, 0.315871
1873.56, 0.315922
1874.24, 0.315820
1874.92, 0.315922
1875.6, 0.315974
1876.28, 0.316076
1876.96, 0.316230
1877.64, 0.316281
1878.32, 0.316435
1879.0, 0.316486
1879.68, 0.316486
1880.36, 0.316384
1881.04, 0.316435
1881.73, 0.316538
1882.41, 0.316538
1883.09, 0.316640
1883.78, 0.316897
1884.46, 0.316948
1885.15, 0.317050
1885.83, 0.317204
1886.52, 0.316999
1887.21, 0.316948
1887.89, 0.316897
1888.58, 0.316999
1889.27, 0.317204
1889.96, 0.317307
1890.65, 0.317307
1891.34, 0.317409
1892.03, 0.317666
1892.72, 0.317666
1893.41, 0.317717
1894.1, 0.317614
1894.79, 0.317614
1895.49, 0.317666
1896.18, 0.317768
1896.87, 0.317871
1897.57, 0.317973
1898.26, 0.318076
1898.96, 0.318230
1899.65, 0.318281
1900.35, 0.318281
1901.05, 0.318281
1901.74, 0.318383
1902.44, 0.318691
1903.14, 0.318691
1903.84, 0.318332
1904.54, 0.318640
1905.24, 0.318794
1905.94, 0.318845
1906.64, 0.318896
1907.34, 0.318896
1908.04, 0.318794
1908.75, 0.318896
1909.45, 0.318947
1910.15, 0.318999
1910.86, 0.319152
1911.56, 0.319357
1912.27, 0.319614
1912.97, 0.319665
1913.68, 0.319819
1914.39, 0.319819
1915.09, 0.319768
1915.8, 0.319921
1916.51, 0.319973
1917.22, 0.319973
1917.93, 0.320178
1918.64, 0.320537
1919.35, 0.320742
1920.06, 0.321101
1920.77, 0.321101
1921.48, 0.320793
1922.19, 0.320793
1922.91, 0.320793
1923.62, 0.321254
1924.33, 0.321665
1925.05, 0.321562
1925.76, 0.321511
1926.48, 0.321665
1927.19, 0.321818
1927.91, 0.322075
1928.63, 0.322331
1929.35, 0.322229
1930.07, 0.322177
1930.78, 0.322280
1931.5, 0.322485
1932.22, 0.322536
1932.94, 0.322844
1933.66, 0.322998
1934.39, 0.322998
1935.11, 0.323049
1935.83, 0.323305
1936.55, 0.323357
1937.28, 0.323357
1938.0, 0.323562
1938.73, 0.323767
1939.45, 0.323818
1940.18, 0.323869
1940.9, 0.323920
1941.63, 0.324177
1942.36, 0.324331
1943.09, 0.324331
1943.81, 0.324331
1944.54, 0.324382
1945.27, 0.324689
1946.0, 0.324895
1946.73, 0.324946
1947.47, 0.324895
1948.2, 0.324997
1948.93, 0.325202
1949.66, 0.325510
1950.4, 0.325459
1951.13, 0.325356
1951.86, 0.325459
1952.6, 0.325459
1953.34, 0.325561
1954.07, 0.325715
1954.81, 0.325664
1955.55, 0.325971
1956.29, 0.326228
1957.02, 0.326125
1957.76, 0.326074
1958.5, 0.326176
1959.24, 0.326228
1959.98, 0.326228
1960.72, 0.326381
1961.47, 0.326330
1962.21, 0.326484
1962.95, 0.326740
1963.7, 0.326792
1964.44, 0.326638
1965.18, 0.326792
1965.93, 0.326843
1966.67, 0.326843
1967.42, 0.326945
1968.17, 0.326945
1968.92, 0.326997
1969.66, 0.327202
1970.41, 0.327150
1971.16, 0.327099
1971.91, 0.327304
1972.66, 0.327253
1973.41, 0.327202
1974.16, 0.327509
1974.92, 0.327663
1975.67, 0.327663
1976.42, 0.327458
1977.18, 0.327458
1977.93, 0.327612
1978.69, 0.327766
1979.44, 0.327766
1980.2, 0.327766
1980.95, 0.327868
1981.71, 0.327919
1982.47, 0.328125
1983.23, 0.328227
1983.99, 0.328278
1984.74, 0.327971
1985.51, 0.327868
1986.27, 0.328073
1987.03, 0.328278
1987.79, 0.328535
1988.55, 0.328740
1989.32, 0.328637
1990.08, 0.328483
1990.84, 0.328535
1991.61, 0.328535
1992.37, 0.328637
1993.14, 0.328740
1993.9, 0.328945
1994.67, 0.328894
1995.44, 0.328996
1996.21, 0.329099
1996.98, 0.328945
1997.75, 0.328945
1998.52, 0.329252
1999.29, 0.329560
2000.06, 0.329560
2000.83, 0.329355
2001.6, 0.329406
2002.38, 0.329611
2003.15, 0.329663
2003.93, 0.329560
2004.7, 0.329560
2005.48, 0.329919
2006.25, 0.330073
2007.03, 0.330022
2007.81, 0.329970
2008.58, 0.330022
2009.36, 0.330278
2010.14, 0.330534
2010.92, 0.330432
2011.7, 0.330432
2012.48, 0.330483
2013.26, 0.330534
2014.05, 0.330586
2014.83, 0.330791
2015.61, 0.331047
2016.4, 0.331047
2017.18, 0.331047
2017.97, 0.331098
2018.75, 0.331201
2019.54, 0.331047
2020.32, 0.331098
2021.11, 0.331252
2021.9, 0.331406
2022.69, 0.331355
2023.48, 0.331355
2024.27, 0.331457
2025.06, 0.331611
2025.85, 0.331662
2026.64, 0.331611
2027.44, 0.331662
2028.23, 0.331918
2029.02, 0.332021
2029.82, 0.332021
2030.61, 0.331970
2031.41, 0.331970
2032.2, 0.332072
2033.0, 0.332175
2033.8, 0.332277
2034.6, 0.332431
2035.4, 0.332431
2036.2, 0.332380
2037.0, 0.332431
2037.8, 0.332431
2038.6, 0.332482
2039.4, 0.332636
2040.2, 0.332790
2041.01, 0.332944
2041.81, 0.333046
2042.61, 0.332893
2043.42, 0.332790
2044.22, 0.332944
2045.03, 0.332995
2045.84, 0.333098
2046.65, 0.332995
2047.46, 0.332995
2048.26, 0.332995
2049.07, 0.332995
2049.88, 0.333098
2050.69, 0.333149
2051.51, 0.333046
2052.32, 0.333149
2053.13, 0.333303
2053.94, 0.333303
2054.76, 0.333149
2055.57, 0.333252
2056.39, 0.333252
2057.2, 0.333252
2058.02, 0.333354
2058.84, 0.333303
2059.66, 0.333149
2060.48, 0.333149
2061.29, 0.333046
2062.11, 0.332995
2062.94, 0.333149
2063.76, 0.333200
2064.58, 0.333046
2065.4, 0.332944
2066.22, 0.332995
2067.05, 0.332944
2067.87, 0.332893
2068.7, 0.332995
2069.52, 0.333046
2070.35, 0.333098
2071.18, 0.333046
2072.0, 0.333046
2072.83, 0.332888
2073.66, 0.333046
2074.49, 0.333574
2075.32, 0.334314
2076.15, 0.334155
2076.98, 0.333838
2077.82, 0.333997
2078.65, 0.334314
2079.48, 0.333997
2080.32, 0.333574
2081.15, 0.333733
2081.99, 0.333680
2082.83, 0.333997
2083.66, 0.334102
2084.5, 0.333838
2085.34, 0.333574
2086.18, 0.333363
2087.02, 0.333416
2087.86, 0.333416
2088.7, 0.333363
2089.54, 0.333310
2090.39, 0.333363
2091.23, 0.333310
2092.07, 0.332994
2092.92, 0.333152
2093.76, 0.333733
2094.61, 0.333786
2095.45, 0.333733
2096.3, 0.333838
2097.15, 0.333522
2098.0, 0.333310
2098.85, 0.333416
2099.7, 0.333152
2100.55, 0.332888
2101.4, 0.332835
2102.25, 0.332571
2103.1, 0.332518
2103.96, 0.332360
2104.81, 0.332307
2105.67, 0.332941
2106.52, 0.333258
2107.38, 0.333310
2108.24, 0.333363
2109.09, 0.332941
2109.95, 0.332307
2110.81, 0.332360
2111.67, 0.332360
2112.53, 0.332413
2113.39, 0.332413
2114.25, 0.332254
2115.12, 0.331991
2115.98, 0.332307
2116.84, 0.332307
2117.71, 0.332254
2118.58, 0.332466
2119.44, 0.332571
2120.31, 0.332466
2121.18, 0.332254
2122.04, 0.332043
2122.91, 0.331832
2123.78, 0.332096
2124.65, 0.332466
2125.52, 0.332360
2126.4, 0.332043
2127.27, 0.331991
2128.14, 0.332096
2129.02, 0.331568
2129.89, 0.331251
2130.77, 0.331146
2131.64, 0.330987
2132.52, 0.330987
2133.4, 0.331357
2134.27, 0.331515
2135.15, 0.331463
2136.03, 0.330882
2136.91, 0.330459
2137.79, 0.330565
2138.68, 0.331199
2139.56, 0.331146
2140.44, 0.331040
2141.33, 0.331040
2142.21, 0.330829
2143.1, 0.330512
2143.99, 0.330565
2144.87, 0.330407
2145.76, 0.330301
2146.65, 0.330301
2147.54, 0.330090
2148.43, 0.330195
2149.32, 0.330407
2150.21, 0.330248
2151.1, 0.330459
2151.99, 0.330407
2152.89, 0.330512
2153.78, 0.330301
2154.68, 0.330090
2155.57, 0.329984
2156.47, 0.329773
2157.37, 0.329298
2158.27, 0.329298
2159.16, 0.329615
2160.06, 0.329879
2160.96, 0.330195
2161.86, 0.330090
2162.77, 0.329931
2163.67, 0.329931
2164.57, 0.329351
2165.48, 0.329509
2166.38, 0.329720
2167.29, 0.329351
2168.2, 0.329087
2169.1, 0.328823
2170.01, 0.328717
2170.92, 0.328770
2171.83, 0.328875
2172.74, 0.328875
2173.65, 0.328611
2174.56, 0.328506
2175.47, 0.328400
2176.39, 0.328136
2177.3, 0.328136
2178.22, 0.328400
2179.13, 0.328242
2180.05, 0.328136
2180.96, 0.328136
2181.88, 0.328189
2182.8, 0.328295
2183.72, 0.328189
2184.64, 0.327872
2185.56, 0.327872
2186.48, 0.327503
2187.41, 0.327239
2188.33, 0.327344
2189.25, 0.327239
2190.18, 0.327450
2191.1, 0.327714
2192.03, 0.327291
2192.96, 0.327133
2193.89, 0.327028
2194.82, 0.327133
2195.74, 0.326764
2196.68, 0.326552
2197.61, 0.326236
2198.54, 0.326341
2199.47, 0.326605
2200.4, 0.326552
2201.34, 0.326183
2202.28, 0.325972
2203.21, 0.326236
2204.15, 0.326341
2205.08, 0.325972
2206.02, 0.325602
2206.96, 0.325285
2207.9, 0.325232
2208.84, 0.325074
2209.78, 0.325021
2210.73, 0.324968
2211.67, 0.324810
2212.61, 0.324968
2213.56, 0.325074
2214.5, 0.324916
2215.45, 0.325074
2216.4, 0.324916
2217.35, 0.324388
2218.3, 0.324335
2219.24, 0.324493
2220.2, 0.324704
2221.15, 0.324757
2222.1, 0.324546
2223.05, 0.324440
2224.0, 0.324388
2224.96, 0.324335
2225.91, 0.324335
2226.87, 0.324229
2227.83, 0.323860
2228.79, 0.323965
2229.74, 0.324124
2230.7, 0.323860
2231.66, 0.323543
2232.63, 0.323754
2233.59, 0.323912
2234.55, 0.323490
2235.51, 0.322857
2236.48, 0.322909
2237.44, 0.323121
2238.41, 0.322962
2239.38, 0.322804
2240.34, 0.323121
2241.31, 0.323279
2242.28, 0.323332
2243.25, 0.323384
2244.22, 0.322804
2245.19, 0.322170
2246.17, 0.322170
2247.14, 0.322117
2248.12, 0.322012
2249.09, 0.322223
2250.07, 0.322540
2251.04, 0.322487
2252.02, 0.322276
2253.0, 0.322170
2253.98, 0.322170
2254.96, 0.321748
2255.94, 0.321748
2256.92, 0.321695
2257.91, 0.321589
2258.89, 0.321273
2259.88, 0.321484
2260.86, 0.321589
2261.85, 0.321537
2262.83, 0.321748
2263.82, 0.321748
2264.81, 0.321325
2265.8, 0.321167
2266.79, 0.321009
2267.78, 0.320639
2268.78, 0.320692
2269.77, 0.321167
2270.76, 0.321009
2271.76, 0.320586
2272.75, 0.320269
2273.75, 0.320058
2274.75, 0.320111
2275.75, 0.320533
2276.75, 0.320217
2277.75, 0.320058
2278.75, 0.320111
2279.75, 0.319847
2280.75, 0.320058
2281.76, 0.320164
2282.76, 0.319847
2283.77, 0.319583
2284.77, 0.319741
2285.78, 0.319900
2286.79, 0.319900
2287.8, 0.319741
2288.81, 0.319530
2289.82, 0.319425
2290.83, 0.319266
2291.84, 0.319319
2292.86, 0.319319
2293.87, 0.319636
2294.89, 0.319794
2295.91, 0.319530
2296.92, 0.319477
2297.94, 0.319583
2298.96, 0.319636
2299.98, 0.319583
2301.0, 0.319213
2302.02, 0.319266
2303.04, 0.319161
2304.07, 0.319108
2305.09, 0.319372
2306.12, 0.319161
2307.15, 0.318897
2308.17, 0.318791
2309.2, 0.318791
2310.23, 0.319161
2311.26, 0.319055
2312.29, 0.318791
2313.32, 0.318686
2314.35, 0.318474
2315.39, 0.318474
2316.42, 0.318633
2317.46, 0.318738
2318.5, 0.319213
2319.53, 0.318738
2320.57, 0.318263
2321.61, 0.318474
2322.65, 0.318580
2323.69, 0.318263
2324.73, 0.318369
2325.78, 0.318422
2326.82, 0.318527
2327.86, 0.318686
2328.91, 0.318738
2329.96, 0.318580
2331.01, 0.318263
2332.05, 0.317946
2333.1, 0.318210
2334.15, 0.318210
2335.21, 0.317894
2336.26, 0.317841
2337.31, 0.318052
2338.36, 0.317894
2339.42, 0.317630
2340.48, 0.317154
2341.53, 0.317260
2342.59, 0.317841
2343.65, 0.317682
2344.71, 0.317049
2345.77, 0.317313
2346.83, 0.317577
2347.9, 0.317524
2348.96, 0.317366
2350.02, 0.317524
2351.09, 0.317313
2352.16, 0.316996
2353.23, 0.317049
2354.29, 0.317154
2355.36, 0.316890
2356.43, 0.316732
2357.51, 0.316679
2358.58, 0.316943
2359.65, 0.316732
2360.73, 0.316732
2361.8, 0.316732
2362.88, 0.316626
2363.96, 0.316679
2365.03, 0.316679
2366.11, 0.316626
2367.19, 0.316626
2368.27, 0.316626
2369.36, 0.316785
2370.44, 0.316679
2371.53, 0.316362
2372.61, 0.316362
2373.7, 0.316415
2374.78, 0.316310
2375.87, 0.316310
2376.96, 0.316098
2378.05, 0.316046
2379.14, 0.316310
2380.24, 0.316574
2381.33, 0.316574
2382.42, 0.316310
2383.52, 0.316310
2384.61, 0.316415
2385.71, 0.316310
2386.81, 0.316204
2387.91, 0.315940
2389.01, 0.315834
2390.11, 0.316046
2391.22, 0.316204
2392.32, 0.316046
2393.42, 0.316046
2394.53, 0.316046
2395.64, 0.315887
2396.74, 0.316257
2397.85, 0.316362
2398.96, 0.316151
2400.07, 0.315940
2401.18, 0.315993
2402.3, 0.316362
2403.41, 0.316257
2404.52, 0.315993
2405.64, 0.315834
2406.76, 0.316046
2407.88, 0.316362
2408.99, 0.316362
2410.11, 0.316098
2411.23, 0.315676
2412.36, 0.315518
2413.48, 0.315782
2414.6, 0.316151
2415.73, 0.316310
2416.85, 0.316098
2417.98, 0.316204
2419.11, 0.316362
2420.24, 0.316046
2421.37, 0.315782
2422.5, 0.316046
2423.64, 0.315993
2424.77, 0.316046
2425.9, 0.316362
2427.04, 0.316679
2428.18, 0.316521
2429.31, 0.316310
2430.45, 0.316204
2431.59, 0.316204
2432.73, 0.316362
2433.88, 0.316574
2435.02, 0.316785
2436.16, 0.316679
2437.31, 0.316679
2438.45, 0.316838
2439.6, 0.316838
2440.75, 0.316890
2441.9, 0.317102
2443.05, 0.316996
2444.2, 0.317049
2445.35, 0.317154
2446.51, 0.317207
2447.67, 0.317207
2448.82, 0.316838
2449.98, 0.316890
2451.14, 0.316996
2452.3, 0.317260
2453.46, 0.317313
2454.62, 0.317207
2455.78, 0.317366
2456.94, 0.317471
2458.11, 0.317366
2459.28, 0.317418
2460.44, 0.317682
2461.61, 0.317946
2462.78, 0.317841
2463.95, 0.317894
2465.12, 0.317894
2466.3, 0.317841
2467.47, 0.317946
2468.65, 0.318052
2469.82, 0.318158
2471.0, 0.318422
2472.18, 0.318422
2473.36, 0.318316
2474.54, 0.318158
2475.72, 0.318316
2476.9, 0.318686
2478.08, 0.318738
2479.27, 0.318791
2480.46, 0.318897
2481.64, 0.319055
2482.83, 0.319108
2484.02, 0.319266
2485.21, 0.319425
2486.4, 0.319266
2487.6, 0.319372
2488.79, 0.319425
2489.99, 0.319689
2491.18, 0.319794
2492.38, 0.319847
2493.58, 0.319741
2494.78, 0.319847
2495.98, 0.319741
2497.18, 0.320269
2498.39, 0.320586
2499.59, 0.320639
2500.8, 0.320586
2502.01, 0.320850
2503.21, 0.320797
2504.42, 0.320797
2505.63, 0.321114
2506.84, 0.321431
2508.06, 0.321167
2509.27, 0.321273
2510.49, 0.321537
2511.7, 0.321642
2512.92, 0.321484
2514.14, 0.321748
2515.36, 0.322012
2516.58, 0.322065
2517.8, 0.322170
2519.03, 0.322381
2520.25, 0.322487
2521.48, 0.322381
2522.7, 0.322434
2523.93, 0.322909
2525.16, 0.322962
2526.39, 0.322962
2527.62, 0.323015
2528.86, 0.323173
2530.09, 0.323701
2531.33, 0.324018
2532.56, 0.324018
2533.8, 0.323965
2535.04, 0.324124
2536.28, 0.324440
2537.52, 0.324176
2538.76, 0.324229
2540.01, 0.324335
2541.25, 0.324652
2542.5, 0.325444
2543.75, 0.325391
2544.99, 0.325074
2546.24, 0.325180
2547.49, 0.325655
2548.75, 0.325549
2550.0, 0.325919
2551.26, 0.326605
2552.51, 0.326922
2553.77, 0.326605
2555.03, 0.325972
2556.29, 0.326130
2557.55, 0.326394
2558.81, 0.327133
2560.08, 0.328295
2561.34, 0.329351
2562.61, 0.329403
2563.88, 0.329298
2565.14, 0.328664
2566.41, 0.327767
2567.68, 0.327925
2568.96, 0.329087
2570.23, 0.328770
2571.51, 0.328189
2572.78, 0.329984
2574.06, 0.330143
2575.34, 0.329615
2576.62, 0.330301
2577.9, 0.329562
2579.18, 0.329245
2580.47, 0.330195
2581.75, 0.330195
2583.04, 0.331463
2584.32, 0.332149
2585.61, 0.330671
2586.9, 0.331357
2588.2, 0.331146
2589.49, 0.330723
2590.78, 0.330354
2592.08, 0.330618
2593.37, 0.333522
2594.67, 0.337217
2595.97, 0.334736
2597.27, 0.331568
2598.57, 0.330723
2599.88, 0.331304
2601.18, 0.332360
2602.49, 0.332571
2603.79, 0.333258
2605.1, 0.334842
2606.41, 0.334472
2607.72, 0.333416
2609.03, 0.333416
2610.35, 0.333099
2611.66, 0.332677
2612.98, 0.332888
2614.3, 0.332835
2615.62, 0.334683
2616.94, 0.336003
2618.26, 0.334525
2619.58, 0.335422
2620.91, 0.335475
2622.23, 0.333258
2623.56, 0.332941
2624.89, 0.333891
2626.22, 0.335792
2627.55, 0.334894
2628.88, 0.335000
2630.21, 0.337270
2631.55, 0.335898
2632.89, 0.335106
2634.22, 0.335370
2635.56, 0.334314
2636.9, 0.334155
2638.25, 0.334314
2639.59, 0.334578
2640.93, 0.334894
2642.28, 0.334842
2643.63, 0.334525
2644.98, 0.335370
2646.33, 0.335370
2647.68, 0.334525
2649.03, 0.334314
2650.39, 0.334789
2651.74, 0.335634
2653.1, 0.335845
2654.46, 0.335370
2655.82, 0.335422
2657.18, 0.334419
2658.54, 0.334789
2659.9, 0.335475
2661.27, 0.335053
2662.64, 0.334261
2664.01, 0.335686
2665.38, 0.337640
2666.74, 0.337323
2668.12, 0.334894
2669.49, 0.336320
2670.87, 0.336425
2672.24, 0.331674
2673.62, 0.330090
2675.0, 0.330407
2676.38, 0.331093
2677.76, 0.329931
2679.15, 0.328559
2680.54, 0.326288
2681.92, 0.324810
2683.31, 0.324229
2684.7, 0.322698
2686.09, 0.321378
2687.48, 0.319636
2688.88, 0.317735
2690.27, 0.315518
2691.67, 0.313934
2693.07, 0.313353
2694.47, 0.311135
2695.87, 0.307017
2697.27, 0.303005
2698.67, 0.299309
2700.08, 0.296880
2701.49, 0.294451
2702.9, 0.291495
2704.31, 0.289383
2705.72, 0.288380
2707.13, 0.287905
2708.54, 0.288697
2709.96, 0.289700
2711.38, 0.289436
2712.8, 0.287007
2714.22, 0.285634
2715.64, 0.284790
2717.06, 0.284209
2718.49, 0.283681
2719.91, 0.284526
2721.34, 0.282783
2722.77, 0.280091
2724.2, 0.279932
2725.63, 0.277451
2727.07, 0.274283
2728.5, 0.272752
2729.94, 0.271432
2731.38, 0.269795
2732.82, 0.268475
2734.26, 0.268264
2735.7, 0.266838
2737.15, 0.265043
2738.59, 0.265571
2740.04, 0.265518
2741.49, 0.263407
2742.94, 0.260503
2744.39, 0.258285
2745.84, 0.256912
2747.3, 0.255329
2748.76, 0.254009
2750.21, 0.252794
2751.67, 0.251369
2753.14, 0.249890
2754.6, 0.250049
2756.06, 0.248729
2757.53, 0.245878
2759.0, 0.244452
2760.46, 0.243819
2761.94, 0.244452
2763.41, 0.244822
2764.88, 0.244347
2766.36, 0.243924
2767.83, 0.243555
2769.31, 0.243080
2770.79, 0.243080
2772.27, 0.242129
2773.76, 0.240915
2775.24, 0.240387
2776.73, 0.240176
2778.22, 0.239700
2779.71, 0.239278
2781.2, 0.239067
2782.69, 0.238486
2784.18, 0.237694
2785.68, 0.237800
2787.18, 0.238117
2788.68, 0.237166
2790.18, 0.236057
2791.68, 0.235160
2793.19, 0.234579
2794.69, 0.234157
2796.2, 0.233576
2797.71, 0.232784
2799.22, 0.232150
2800.73, 0.231781
2802.24, 0.231992
2803.76, 0.231622
2805.28, 0.230355
2806.8, 0.229405
2808.32, 0.228930
2809.84, 0.228296
2811.36, 0.227557
2812.89, 0.227187
2814.42, 0.227135
2815.94, 0.226765
2817.48, 0.226396
2819.01, 0.226079
2820.54, 0.225445
2822.08, 0.224706
2823.61, 0.224284
2825.15, 0.223914
2826.69, 0.223650
2828.23, 0.223122
2829.78, 0.222489
2831.32, 0.222119
2832.87, 0.221802
2834.42, 0.221380
2835.97, 0.220905
2837.52, 0.220377
2839.08, 0.219954
2840.63, 0.219796
2842.19, 0.219796
2843.75, 0.219743
2845.31, 0.219532
2846.87, 0.219426
2848.44, 0.219532
2850.0, 0.219321
2851.57, 0.218951
2853.14, 0.218793
2854.71, 0.218423
2856.28, 0.218054
2857.86, 0.217684
2859.43, 0.217473
2861.01, 0.217262
2862.59, 0.216945
2864.17, 0.216681
2865.76, 0.216470
2867.34, 0.216206
2868.93, 0.215730
2870.52, 0.215519
2872.11, 0.215361
2873.7, 0.215150
2875.29, 0.214780
2876.89, 0.214358
2878.49, 0.214094
2880.08, 0.213777
2881.69, 0.213460
2883.29, 0.213091
2884.89, 0.212827
2886.5, 0.212563
2888.11, 0.212510
2889.72, 0.212299
2891.33, 0.211982
2892.94, 0.211718
2894.56, 0.211507
2896.17, 0.211243
2897.79, 0.211084
2899.42, 0.211084
2901.04, 0.211084
2902.66, 0.210873
2904.29, 0.210767
2905.92, 0.210609
2907.55, 0.210345
2909.18, 0.210345
2910.81, 0.210292
2912.45, 0.210028
2914.08, 0.209870
2915.72, 0.209712
2917.36, 0.209659
2919.01, 0.209553
2920.65, 0.209448
2922.3, 0.209289
2923.94, 0.208867
2925.59, 0.208761
2927.25, 0.208656
2928.9, 0.208497
2930.56, 0.208286
2932.21, 0.208075
2933.87, 0.207864
2935.53, 0.207916
2937.2, 0.207864
2938.86, 0.207758
2940.53, 0.207600
2942.2, 0.207336
2943.87, 0.207124
2945.54, 0.207072
2947.22, 0.207019
2948.89, 0.206860
2950.57, 0.206596
2952.25, 0.206596
2953.93, 0.206491
2955.62, 0.206227
2957.3, 0.206016
2958.99, 0.205910
2960.68, 0.205752
2962.37, 0.205699
2964.07, 0.205541
2965.76, 0.205329
2967.46, 0.205171
2969.16, 0.205013
2970.86, 0.204960
2972.56, 0.204960
2974.27, 0.204960
2975.98, 0.204485
2977.69, 0.204221
2979.4, 0.204273
2981.11, 0.204168
2982.83, 0.204009
2984.54, 0.203904
2986.26, 0.203745
2987.98, 0.203481
2989.71, 0.203429
2991.43, 0.203376
2993.16, 0.203270
2994.89, 0.203112
2996.62, 0.202901
2998.35, 0.202953
3000.09, 0.202742
3001.83, 0.202425
3003.57, 0.202320
3005.31, 0.202267
3007.05, 0.202162
3008.79, 0.202056
3010.54, 0.201898
3012.29, 0.201845
3014.04, 0.201792
3015.8, 0.201686
3017.55, 0.201581
3019.31, 0.201370
3021.07, 0.201264
3022.83, 0.201317
3024.59, 0.201264
3026.36, 0.201053
3028.13, 0.200842
3029.9, 0.200578
3031.67, 0.200472
3033.44, 0.200472
3035.22, 0.200261
3037.0, 0.200102
3038.78, 0.200102
3040.56, 0.200050
3042.34, 0.199838
3044.13, 0.199469
3045.92, 0.199363
3047.71, 0.199310
3049.5, 0.199046
3051.3, 0.198994
3053.09, 0.199046
3054.89, 0.198888
3056.69, 0.198782
3058.5, 0.198677
3060.3, 0.198466
3062.11, 0.198202
3063.92, 0.198149
3065.73, 0.198043
3067.55, 0.197885
3069.36, 0.197779
3071.18, 0.197674
3073.0, 0.197568
3074.82, 0.197463
3076.65, 0.197410
3078.48, 0.197251
3080.31, 0.197040
3082.14, 0.196882
3083.97, 0.196671
3085.8, 0.196671
3087.64, 0.196723
3089.48, 0.196723
3091.33, 0.196618
3093.17, 0.196512
3095.02, 0.196301
3096.87, 0.196195
3098.72, 0.196090
3100.57, 0.195984
3102.43, 0.195984
3104.28, 0.195931
3106.14, 0.196037
3108.01, 0.195984
3109.87, 0.195931
3111.74, 0.195879
3113.61, 0.195879
3115.48, 0.195931
3117.35, 0.195879
3119.23, 0.195773
3121.1, 0.195826
3122.98, 0.195931
3124.87, 0.195931
3126.75, 0.196037
3128.64, 0.196195
3130.53, 0.196354
3132.42, 0.196248
3134.31, 0.196301
3136.21, 0.196459
3138.11, 0.196512
3140.01, 0.196565
3141.91, 0.196776
3143.82, 0.196935
3145.73, 0.196935
3147.64, 0.196987
3149.55, 0.197251
3151.46, 0.197410
3153.38, 0.197568
3155.3, 0.197727
3157.22, 0.198043
3159.14, 0.198307
3161.07, 0.198571
3163.0, 0.198835
3164.93, 0.198994
3166.86, 0.199258
3168.8, 0.199416
3170.74, 0.199522
3172.68, 0.199786
3174.62, 0.200102
3176.56, 0.200366
3178.51, 0.200630
3180.46, 0.201000
3182.42, 0.201317
3184.37, 0.201528
3186.33, 0.201686
3188.29, 0.202109
3190.25, 0.202425
3192.21, 0.202848
3194.18, 0.203165
3196.15, 0.203534
3198.12, 0.204115
3200.09, 0.204590
3202.07, 0.204801
3204.05, 0.205171
3206.03, 0.205593
3208.02, 0.206016
3210.0, 0.206491
3211.99, 0.206913
3213.98, 0.207283
3215.98, 0.207705
3217.97, 0.208128
3219.97, 0.208550
3221.97, 0.209184
3223.98, 0.209712
3225.98, 0.210081
3227.99, 0.210504
3230.0, 0.210979
3232.02, 0.211454
3234.03, 0.211982
3236.05, 0.212563
3238.07, 0.213038
3240.1, 0.213460
3242.12, 0.213935
3244.15, 0.214516
3246.18, 0.215097
3248.22, 0.215572
3250.25, 0.216100
3252.29, 0.216628
3254.33, 0.217209
3256.38, 0.217790
3258.43, 0.218265
3260.47, 0.218846
3262.53, 0.219321
3264.58, 0.219796
3266.64, 0.220324
3268.7, 0.220957
3270.76, 0.221591
3272.82, 0.222066
3274.89, 0.222594
3276.96, 0.223122
3279.04, 0.223597
3281.11, 0.224178
3283.19, 0.224864
3285.27, 0.225392
3287.35, 0.225868
3289.44, 0.226448
3291.53, 0.227082
3293.62, 0.227715
3295.71, 0.228349
3297.81, 0.228877
3299.91, 0.229299
3302.01, 0.229775
3304.11, 0.230303
3306.22, 0.230725
3308.33, 0.231306
3310.44, 0.231886
3312.56, 0.232467
3314.68, 0.232995
3316.8, 0.233418
3318.92, 0.233998
3321.05, 0.234738
3323.18, 0.235213
3325.31, 0.235529
3327.44, 0.236005
3329.58, 0.236480
3331.72, 0.237061
3333.86, 0.237641
3336.01, 0.238064
3338.16, 0.238592
3340.31, 0.239120
3342.46, 0.239595
3344.61, 0.239912
3346.77, 0.240334
3348.94, 0.240756
3351.1, 0.241126
3353.27, 0.241496
3355.44, 0.241971
3357.61, 0.242499
3359.79, 0.242816
3361.97, 0.243132
3364.15, 0.243396
3366.33, 0.243766
3368.52, 0.244188
3370.71, 0.244558
3372.9, 0.244927
3375.1, 0.245297
3377.3, 0.245719
3379.5, 0.245983
3381.71, 0.246406
3383.91, 0.246881
3386.12, 0.247356
3388.34, 0.247884
3390.55, 0.248306
3392.77, 0.248729
3394.99, 0.249046
3397.22, 0.249415
3399.45, 0.249838
3401.68, 0.250102
3403.91, 0.250313
3406.15, 0.250735
3408.39, 0.251158
3410.63, 0.251474
3412.87, 0.251844
3415.12, 0.252161
3417.37, 0.252583
3419.63, 0.253111
3421.88, 0.253586
3424.14, 0.254167
3426.41, 0.254695
3428.67, 0.255329
3430.94, 0.256015
3433.21, 0.256596
3435.49, 0.256965
3437.77, 0.257493
3440.05, 0.258021
3442.33, 0.258655
3444.62, 0.259077
3446.91, 0.259447
3449.2, 0.259975
3451.5, 0.260556
3453.8, 0.261031
3456.1, 0.261347
3458.41, 0.261611
3460.72, 0.261981
3463.03, 0.262456
3465.34, 0.262826
3467.66, 0.263248
3469.98, 0.263723
3472.31, 0.263935
3474.63, 0.264093
3476.96, 0.264304
3479.3, 0.264568
3481.64, 0.264885
3483.97, 0.265360
3486.32, 0.265730
3488.66, 0.265994
3491.01, 0.266046
3493.36, 0.266416
3495.72, 0.266838
3498.08, 0.266944
3500.44, 0.267366
3502.81, 0.267894
3505.18, 0.268317
3507.55, 0.268898
3509.92, 0.269373
3512.3, 0.269953
3514.68, 0.270534
3517.06, 0.271115
3519.45, 0.271801
3521.84, 0.272435
3524.24, 0.272963
3526.64, 0.273596
3529.04, 0.274019
3531.44, 0.274388
3533.85, 0.274916
3536.26, 0.275392
3538.67, 0.275867
3541.09, 0.276184
3543.51, 0.276606
3545.93, 0.276976
3548.36, 0.277451
3550.79, 0.277873
3553.22, 0.278243
3555.66, 0.278771
3558.1, 0.279140
3560.54, 0.279457
3562.99, 0.279827
3565.44, 0.280196
3567.9, 0.280566
3570.35, 0.280935
3572.81, 0.281410
3575.28, 0.281833
3577.75, 0.282150
3580.22, 0.282625
3582.69, 0.282994
3585.17, 0.283417
3587.65, 0.283734
3590.14, 0.284156
3592.62, 0.284578
3595.11, 0.285001
3597.61, 0.285423
3600.11, 0.285845
3602.61, 0.286215
3605.11, 0.286585
3607.62, 0.287060
3610.14, 0.287588
3612.65, 0.287852
3615.17, 0.288116
3617.69, 0.288485
3620.22, 0.288855
3622.75, 0.289172
3625.28, 0.289594
3627.82, 0.290122
3630.36, 0.290597
3632.9, 0.290967
3635.45, 0.291231
3638.0, 0.291600
3640.56, 0.292023
3643.12, 0.292392
3645.68, 0.292656
3648.24, 0.293132
3650.81, 0.293554
3653.39, 0.293871
3655.96, 0.294293
3658.54, 0.294768
3661.13, 0.295085
3663.71, 0.295507
3666.3, 0.295930
3668.9, 0.296299
3671.5, 0.296775
3674.1, 0.297091
3676.7, 0.297461
3679.31, 0.297989
3681.93, 0.298464
3684.54, 0.298834
3687.17, 0.299309
3689.79, 0.299678
3692.42, 0.299942
3695.05, 0.300365
3697.69, 0.300840
3700.32, 0.301262
3702.97, 0.301632
3705.61, 0.302002
3708.27, 0.302371
3710.92, 0.302741
3713.58, 0.303216
3716.24, 0.303744
3718.91, 0.304113
3721.58, 0.304377
3724.25, 0.304694
3726.93, 0.305064
3729.61, 0.305539
3732.29, 0.305803
3734.98, 0.306225
3737.67, 0.306648
3740.37, 0.306964
3743.07, 0.307281
3745.78, 0.307704
3748.49, 0.308179
3751.2, 0.308496
3753.91, 0.308812
3756.63, 0.309182
3759.36, 0.309446
3762.09, 0.309816
3764.82, 0.310132
3767.55, 0.310502
3770.29, 0.310819
3773.04, 0.311188
3775.78, 0.311452
3778.54, 0.311769
3781.29, 0.312139
3784.05, 0.312455
3786.82, 0.312772
3789.59, 0.313089
3792.36, 0.313459
3795.13, 0.313828
3797.92, 0.314039
3800.7, 0.314409
3803.49, 0.314726
3806.28, 0.314937
3809.08, 0.315254
3811.88, 0.315676
3814.68, 0.315940
3817.49, 0.316257
3820.31, 0.316626
3823.12, 0.316943
3825.94, 0.317260
3828.77, 0.317577
3831.6, 0.317946
3834.43, 0.318316
3837.27, 0.318633
3840.11, 0.319002
3842.96, 0.319266
3845.81, 0.319636
3848.67, 0.320058
3851.53, 0.320375
3854.39, 0.320639
3857.26, 0.321009
3860.13, 0.321325
3863.01, 0.321642
3865.89, 0.322065
3868.77, 0.322540
3871.66, 0.322857
3874.55, 0.323068
3877.45, 0.323332
3880.35, 0.323807
3883.26, 0.324124
3886.17, 0.324440
3889.09, 0.324810
3892.01, 0.325180
3894.93, 0.325391
3897.86, 0.325602
3900.79, 0.325866
3903.73, 0.326130
3906.67, 0.326394
3909.62, 0.326658
3912.57, 0.326922
3915.52, 0.327080
3918.48, 0.327291
3921.45, 0.327555
3924.42, 0.327767
3927.39, 0.328031
3930.37, 0.328189
3933.35, 0.328400
3936.34, 0.328664
3939.33, 0.328875
3942.32, 0.328928
3945.32, 0.329139
3948.33, 0.329298
3951.34, 0.329456
3954.35, 0.329615
3957.37, 0.329879
3960.39, 0.329984
3963.42, 0.330090
3966.45, 0.330301
3969.49, 0.330512
3972.53, 0.330671
3975.58, 0.330776
3978.63, 0.330829
3981.68, 0.331040
3984.75, 0.331199
3987.81, 0.331357
3990.88, 0.331410
3993.95, 0.331463
3997.03, 0.331674
4000.12, 0.331832
4003.21, 0.331938
4006.3, 0.332043
4009.4, 0.332202
4012.5, 0.332307
4015.61, 0.332307
4018.72, 0.332413
4021.84, 0.332624
4024.96, 0.332677
4028.09, 0.332624
4031.22, 0.332624
4034.36, 0.332677
4037.5, 0.332730
4040.65, 0.332782
4043.8, 0.332730
4046.96, 0.332677
4050.12, 0.332624
4053.29, 0.332730
4056.46, 0.332730
4059.64, 0.332677
4062.82, 0.332730
4066.0, 0.332835
4069.19, 0.332835
4072.39, 0.332835
4075.59, 0.332888
4078.8, 0.332888
4082.01, 0.332782
4085.23, 0.332677
4088.45, 0.332730
4091.68, 0.332782
4094.91, 0.332677
4098.15, 0.332677
4101.39, 0.332677
4104.63, 0.332624
4107.89, 0.332624
4111.14, 0.332624
4114.41, 0.332571
4117.67, 0.332466
4120.95, 0.332413
4124.23, 0.332413
4127.51, 0.332360
4130.8, 0.332307
4134.09, 0.332254
4137.39, 0.331991
4140.7, 0.331832
4144.01, 0.331832
4147.32, 0.331991
4150.64, 0.331832
4153.97, 0.331779
4157.3, 0.331779
4160.64, 0.331779
4163.98, 0.331727
4167.33, 0.331568
4170.68, 0.331515
4174.04, 0.331515
4177.4, 0.331357
4180.77, 0.331199
4184.14, 0.331040
4187.52, 0.330935
4190.91, 0.330882
4194.3, 0.330776
4197.69, 0.330776
4201.1, 0.330829
4204.5, 0.330987
4207.92, 0.331304
4211.34, 0.331568
4214.76, 0.331832
4218.19, 0.332096
4221.62, 0.332307
4225.06, 0.332571
4228.51, 0.332624
4231.96, 0.332518
4235.42, 0.332571
4238.88, 0.332360
4242.35, 0.332043
4245.83, 0.331515
4249.31, 0.330723
4252.79, 0.329773
4256.28, 0.329245
4259.78, 0.329456
4263.29, 0.329984
4266.79, 0.330195
4270.31, 0.330248
4273.83, 0.330143
4277.35, 0.330037
4280.89, 0.329773
4284.42, 0.329615
4287.97, 0.329403
4291.52, 0.329298
4295.07, 0.328981
4298.63, 0.328664
4302.2, 0.328347
4305.78, 0.328136
4309.35, 0.327767
4312.94, 0.327450
4316.53, 0.327133
4320.13, 0.326869
4323.73, 0.326658
4327.34, 0.326288
4330.96, 0.325919
4334.58, 0.325760
4338.21, 0.325602
4341.84, 0.325285
4345.48, 0.325021
4349.12, 0.324810
4352.77, 0.324599
4356.43, 0.324335
4360.1, 0.324124
4363.76, 0.323965
4367.44, 0.323754
4371.12, 0.323543
4374.81, 0.323279
4378.51, 0.323173
4382.21, 0.323015
4385.92, 0.322804
4389.63, 0.322593
4393.35, 0.322434
4397.08, 0.322117
4400.81, 0.321959
4404.55, 0.321748
4408.29, 0.321537
4412.04, 0.321378
4415.8, 0.321273
4419.57, 0.321061
4423.34, 0.320850
4427.12, 0.320481
4430.9, 0.320217
4434.69, 0.320005
4438.49, 0.319794
4442.29, 0.319636
4446.1, 0.319530
4449.92, 0.319213
4453.74, 0.318949
4457.57, 0.318738
4461.41, 0.318369
4465.25, 0.318105
4469.1, 0.317946
4472.95, 0.317682
4476.82, 0.317471
4480.69, 0.317366
4484.56, 0.317102
4488.44, 0.316785
4492.33, 0.316468
4496.23, 0.316151
4500.13, 0.315940
4504.04, 0.315623
4507.96, 0.315201
4511.88, 0.314937
4515.81, 0.314726
4519.75, 0.314462
4523.69, 0.314303
4527.65, 0.313881
4531.6, 0.313511
4535.57, 0.313300
4539.54, 0.312983
4543.52, 0.312508
4547.5, 0.312244
4551.5, 0.311875
4555.5, 0.311505
4559.5, 0.311083
4563.52, 0.310819
4567.54, 0.310502
4571.56, 0.310185
4575.6, 0.309868
4579.64, 0.309499
4583.69, 0.309182
4587.75, 0.308865
4591.81, 0.308496
4595.88, 0.308179
4599.96, 0.307915
4604.04, 0.307598
4608.14, 0.307176
4612.24, 0.306753
4616.34, 0.306437
4620.46, 0.306120
4624.58, 0.305803
4628.71, 0.305486
4632.84, 0.305064
4636.99, 0.304536
4641.14, 0.304166
4645.3, 0.303849
4649.47, 0.303427
4653.64, 0.303005
4657.82, 0.302529
4662.01, 0.302107
4666.21, 0.301738
4670.41, 0.301421
4674.62, 0.300998
4678.84, 0.300523
4683.07, 0.299995
4687.3, 0.299573
4691.54, 0.299098
4695.79, 0.298728
4700.05, 0.298253
4704.31, 0.297778
4708.59, 0.297303
4712.87, 0.296933
4717.15, 0.296458
4721.45, 0.296088
4725.76, 0.295507
4730.07, 0.294979
4734.39, 0.294504
4738.72, 0.294135
4743.05, 0.293554
4747.39, 0.293026
4751.75, 0.292498
4756.1, 0.292128
4760.47, 0.291600
4764.85, 0.290967
4769.23, 0.290386
4773.62, 0.289858
4778.02, 0.289330
4782.43, 0.288749
4786.85, 0.288169
4791.27, 0.287588
4795.7, 0.286954
4800.14, 0.286373
4804.59, 0.285687
4809.05, 0.285001
4813.51, 0.284367
4817.99, 0.283839
4822.47, 0.283153
4826.96, 0.282466
4831.46, 0.281886
4835.96, 0.281305
4840.48, 0.280724
4845.0, 0.280196
4849.54, 0.279615
4854.08, 0.278982
4858.63, 0.278401
4863.18, 0.277979
4867.75, 0.277503
4872.33, 0.277028
4876.91, 0.276395
4881.5, 0.275867
4886.1, 0.275392
4890.71, 0.274916
4895.33, 0.274494
4899.96, 0.273913
4904.59, 0.273280
4909.24, 0.272699
4913.89, 0.272065
4918.55, 0.271432
4923.22, 0.270693
4927.9, 0.270059
4932.59, 0.269425
4937.29, 0.268792
4942.0, 0.268106
4946.71, 0.267366
4951.44, 0.266522
4956.17, 0.265888
4960.91, 0.265043
4965.67, 0.264199
4970.43, 0.263354
4975.2, 0.262456
4979.98, 0.261611
4984.76, 0.260872
4989.56, 0.259975
4994.37, 0.259077
4999.18, 0.258232
5004.01, 0.257493
5008.84, 0.256648
5013.69, 0.255804
5018.54, 0.255117
5023.4, 0.254009
5028.28, 0.252794
5033.16, 0.251686
5038.05, 0.250471
5042.95, 0.249204
5047.86, 0.247884
5052.78, 0.246459
5057.71, 0.244927
5062.65, 0.243238
5067.6, 0.241496
5072.56, 0.239753
5077.53, 0.237853
5082.5, 0.236057
5087.49, 0.234051
5092.49, 0.231992
5097.5, 0.229880
5102.51, 0.227821
5107.54, 0.225656
5112.58, 0.223544
5117.62, 0.221485
5122.68, 0.219479
5127.75, 0.217578
5132.82, 0.215625
5137.91, 0.213724
5143.01, 0.212035
5148.12, 0.210240
5153.23, 0.208180
5158.36, 0.206333
5163.5, 0.204643
5168.65, 0.203006
5173.81, 0.201422
5178.98, 0.199997
5184.15, 0.198571
5189.34, 0.197040
5194.54, 0.195720
5199.75, 0.194400
5204.98, 0.192869
5210.21, 0.191655
5215.45, 0.190282
5220.7, 0.188540
5225.96, 0.187061
5231.23, 0.185689
5236.52, 0.184369
5241.81, 0.182943
5247.12, 0.181571
5252.44, 0.180356
5257.76, 0.179300
5263.1, 0.178191
5268.45, 0.177135
5273.81, 0.176344
5279.18, 0.175604
5284.56, 0.175076
5289.95, 0.174865
5295.36, 0.174548
5300.77, 0.174179
5306.2, 0.174126
5311.63, 0.174179
5317.08, 0.174390
5322.54, 0.174654
5328.01, 0.174918
5333.49, 0.174971
5338.98, 0.174971
5344.49, 0.175288
5350.0, 0.175446
5355.53, 0.174760
5361.07, 0.173756
5366.62, 0.172806
5372.18, 0.171803
5377.75, 0.170641
5383.34, 0.169269
5388.93, 0.167790
5394.54, 0.166312
5400.16, 0.164834
5405.79, 0.163514
5411.44, 0.162405
5417.09, 0.161824
5422.76, 0.160979
5428.43, 0.159237
5434.12, 0.158023
5439.83, 0.157178
5445.54, 0.156175
5451.26, 0.155066
5457.0, 0.154116
5462.75, 0.153324
5468.52, 0.151687
5474.29, 0.150103
5480.08, 0.148678
5485.88, 0.146883
5491.69, 0.145404
5497.51, 0.144084
5503.35, 0.142923
5509.2, 0.141972
5515.06, 0.141339
5520.93, 0.140916
5526.82, 0.140494
5532.71, 0.140019
5538.63, 0.139649
5544.55, 0.139544
5550.49, 0.139597
5556.44, 0.139280
5562.4, 0.138805
5568.37, 0.138541
5574.36, 0.138646
5580.36, 0.138435
5586.37, 0.137485
5592.4, 0.136745
5598.44, 0.136270
5604.49, 0.135689
5610.56, 0.135056
5616.63, 0.134634
5622.73, 0.134053
5628.83, 0.133789
5634.95, 0.134000
5641.08, 0.134475
5647.23, 0.133894
5653.39, 0.133630
5659.56, 0.133208
5665.74, 0.133102
5671.94, 0.133736
5678.15, 0.134053
5684.38, 0.134211
5690.62, 0.135109
5696.87, 0.135689
5703.14, 0.136693
5709.42, 0.138224
5715.72, 0.139174
5722.03, 0.139913
5728.35, 0.140811
5734.69, 0.142025
5741.03, 0.143504
5747.4, 0.145193
5753.78, 0.146355
5760.17, 0.148625
5766.58, 0.151370
5773.0, 0.152162
5779.44, 0.153377
5785.88, 0.155119
5792.35, 0.157125
5798.83, 0.159448
5805.32, 0.161613
5811.83, 0.164359
5818.35, 0.168107
5824.89, 0.170589
5831.45, 0.171803
5838.01, 0.173123
5844.59, 0.174601
5851.19, 0.176291
5857.8, 0.178139
5864.43, 0.179617
5871.07, 0.180620
5877.73, 0.183418
5884.4, 0.183946
5891.09, 0.183577
5897.79, 0.183999
5904.5, 0.182415
5911.23, 0.181993
5917.98, 0.182046
5924.75, 0.181940
5931.53, 0.183154
5938.32, 0.183682
5945.13, 0.181465
5951.96, 0.180145
5958.8, 0.179617
5965.65, 0.180092
5972.53, 0.179511
5979.42, 0.178561
5986.32, 0.178719
5993.24, 0.177769
6000.18, 0.176185
6007.13, 0.175816
6014.1, 0.175657
6021.08, 0.174390
6028.09, 0.173387
6035.1, 0.173017
6042.14, 0.174443
6049.19, 0.175552
6056.25, 0.172489
6063.34, 0.170958
6070.44, 0.171275
6077.55, 0.170008
6084.69, 0.168371
6091.84, 0.167579
6099.0, 0.167210
6106.19, 0.167685
6113.39, 0.168318
6120.61, 0.166576
6127.84, 0.165150
6135.09, 0.164886
6142.36, 0.164834
6149.65, 0.164570
6156.95, 0.164781
6164.27, 0.164306
6171.61, 0.163672
6178.97, 0.164411
6186.34, 0.164992
6193.73, 0.163672
6201.14, 0.163091
6208.57, 0.162986
6216.01, 0.162880
6223.47, 0.162775
6230.95, 0.162563
6238.45, 0.162299
6245.97, 0.161983
6253.5, 0.161666
6261.06, 0.161402
6268.63, 0.161032
6276.21, 0.160610
6283.82, 0.160135
6291.45, 0.159607
6299.1, 0.159026
6306.76, 0.158551
6314.44, 0.158076
6322.14, 0.157600
6329.86, 0.157125
6337.6, 0.157653
6345.35, 0.157812
6353.13, 0.156122
6360.92, 0.155436
6368.74, 0.155647
6376.57, 0.154749
6384.43, 0.153905
6392.3, 0.153377
6400.19, 0.153324
6408.1, 0.155277
6416.03, 0.155753
6423.98, 0.153482
6431.95, 0.152373
6439.94, 0.151476
6447.95, 0.151054
6455.98, 0.150842
6464.03, 0.150790
6472.1, 0.151265
6480.19, 0.151898
6488.31, 0.153113
6496.44, 0.152849
6504.59, 0.150790
6512.76, 0.150367
6520.95, 0.150737
6529.16, 0.149892
6537.4, 0.149628
6545.65, 0.149839
6553.92, 0.149839
6562.22, 0.149892
6570.54, 0.150367
6578.88, 0.149364
6587.23, 0.148414
6595.61, 0.147675
6604.02, 0.146513
6612.44, 0.145879
6620.89, 0.145351
6629.35, 0.145932
6637.84, 0.145879
6646.35, 0.143345
6654.88, 0.141550
6663.44, 0.140969
6672.01, 0.140864
6680.61, 0.140600
6689.23, 0.139544
6697.88, 0.138805
6706.54, 0.138963
6715.23, 0.138646
6723.94, 0.137749
6732.67, 0.136851
6741.42, 0.136112
6750.2, 0.135742
6759.0, 0.135109
6767.82, 0.134686
6776.67, 0.134264
6785.54, 0.134053
6794.44, 0.133102
6803.35, 0.131466
6812.29, 0.130674
6821.26, 0.130621
6830.24, 0.130251
6839.25, 0.129512
6848.29, 0.129618
6857.35, 0.130727
6866.43, 0.130832
6875.54, 0.129565
6884.67, 0.129195
6893.82, 0.129195
6903.0, 0.129512
6912.2, 0.129407
6921.43, 0.129248
6930.69, 0.129248
6939.96, 0.129354
6949.27, 0.129882
6958.59, 0.130674
6967.95, 0.129935
6977.33, 0.129195
6986.73, 0.129037
6996.16, 0.128562
7005.61, 0.127823
7015.09, 0.127189
7024.6, 0.126503
7034.13, 0.126028
7043.69, 0.125869
7053.27, 0.124444
7062.88, 0.122965
7072.52, 0.122068
7082.18, 0.121276
7091.87, 0.120273
7101.58, 0.119481
7111.32, 0.118847
7121.09, 0.118108
7130.88, 0.117158
7140.71, 0.116682
7150.56, 0.116154
7160.43, 0.115521
7170.33, 0.114782
7180.27, 0.113673
7190.23, 0.112881
7200.21, 0.112511
7210.23, 0.112089
7220.27, 0.111244
7230.34, 0.110505
7240.44, 0.110030
7250.56, 0.109766
7260.72, 0.109502
7270.9, 0.109502
7281.12, 0.109555
7291.36, 0.109502
7301.63, 0.109555
7311.93, 0.109766
7322.25, 0.110083
7332.61, 0.110558
7343.0, 0.110769
7353.41, 0.110611
7363.86, 0.110558
7374.33, 0.110558
7384.83, 0.110716
7395.37, 0.110769
7405.93, 0.110875
7416.53, 0.111139
7427.15, 0.111350
7437.81, 0.111403
7448.5, 0.111561
7459.22, 0.111772
7469.96, 0.111878
7480.74, 0.111772
7491.55, 0.111719
7502.39, 0.111719
7513.27, 0.111667
7524.17, 0.111719
7535.11, 0.111772
7546.08, 0.111878
7557.08, 0.111878
7568.11, 0.111878
7579.17, 0.112142
7590.27, 0.112353
7601.4, 0.112511
7612.56, 0.112617
7623.76, 0.112723
7634.98, 0.112775
7646.24, 0.112881
7657.54, 0.112934
7668.87, 0.113092
7680.23, 0.113251
7691.62, 0.113303
7703.05, 0.113303
7714.51, 0.113303
7726.01, 0.113198
7737.54, 0.113039
7749.11, 0.112775
7760.71, 0.112247
7772.35, 0.111614
7784.02, 0.110875
7795.72, 0.109924
7807.46, 0.108974
7819.23, 0.107971
7831.04, 0.106862
7842.89, 0.105595
7854.77, 0.104381
7866.69, 0.103272
7878.65, 0.102005
7890.64, 0.100526
7902.67, 0.0993650
7914.74, 0.0981500
7926.84, 0.0968310
7938.98, 0.0954050
7951.16, 0.0941380
7963.37, 0.0927120
7975.62, 0.0912340
7987.91, 0.0898080
8000.24, 0.0883830
8012.6, 0.0868520
8025.01, 0.0854260
8037.45, 0.0839480
8049.93, 0.0825220
8062.45, 0.0810970
8075.01, 0.0798300
8087.61, 0.0786150
8100.24, 0.0773480
8112.91, 0.0760810
8125.63, 0.0748670
8138.39, 0.0737050
8151.18, 0.0725440
8164.02, 0.0711710
8176.9, 0.0697980
8189.81, 0.0684780
8202.77, 0.0670530
8215.77, 0.0653630
8228.82, 0.0639380
8241.9, 0.0625120
8255.02, 0.0611390
8268.19, 0.0596610
8281.39, 0.0582360
8294.65, 0.0569160
8307.94, 0.0555960
8321.28, 0.0542230
8334.66, 0.0528500
8348.08, 0.0512660
8361.54, 0.0497350
8375.05, 0.0484150
8388.6, 0.0468840
8402.2, 0.0454060
8415.84, 0.0441390
8429.52, 0.0428190
8443.25, 0.0414460
8457.02, 0.0401260
8470.84, 0.0389120
8484.7, 0.0376450
8498.61, 0.0364300
8512.57, 0.0351630
8526.57, 0.0339490
8540.62, 0.0329980
8554.71, 0.0320480
8568.85, 0.0308870
8583.04, 0.0297780
8597.27, 0.0287750
8611.55, 0.0278240
8625.88, 0.0269800
8640.26, 0.0261350
8654.68, 0.0253960
8669.16, 0.0247620
8683.68, 0.0240760
8698.25, 0.0234420
8712.87, 0.0228090
8727.53, 0.0220170
8742.25, 0.0213300
8757.02, 0.0207490
8771.83, 0.0200630
8786.7, 0.0194290
8801.62, 0.0188490
8816.59, 0.0182680
8831.61, 0.0176870
8846.68, 0.0171060
8861.8, 0.0164730
8876.97, 0.0158920
8892.2, 0.0153110
8907.48, 0.0148360
8922.81, 0.0142550
8938.2, 0.0137270
8953.63, 0.0133050
8969.13, 0.0129350
8984.67, 0.0124600
9000.27, 0.0120380
9015.92, 0.0116150
9031.63, 0.0113510
9047.39, 0.0111400
9063.21, 0.0109820
9079.08, 0.0107180
9095.01, 0.0106650
9111.0, 0.0106120
9127.04, 0.0106120
9143.13, 0.0105590
9159.28, 0.0104540
9175.49, 0.0106120
9191.76, 0.0110350
9208.09, 0.0114570
9224.47, 0.0120380
9240.92, 0.0126710
9257.42, 0.0135690
9273.98, 0.0144670
9290.6, 0.0156280
9307.28, 0.0171590
9324.02, 0.0191650
9340.82, 0.0214360
9357.68, 0.0240760
9374.6, 0.0271910
9391.58, 0.0309390
9408.62, 0.0353220
9425.73, 0.0405480
9442.9, 0.0461450
9460.13, 0.0523750
9477.42, 0.0594500
9494.78, 0.0674750
9512.2, 0.0761870
9529.69, 0.0853210
9547.24, 0.0947190
9564.86, 0.104645
9582.54, 0.114993
9600.28, 0.125711
9618.1, 0.137115
9635.97, 0.148994
9653.92, 0.161243
9671.93, 0.173492
9690.01, 0.185108
9708.16, 0.195879
9726.37, 0.205488
9744.65, 0.213724
9763.0, 0.220535
9781.43, 0.226079
9799.92, 0.230883
9818.48, 0.234790
9837.1, 0.237958
9855.8, 0.240545
9874.58, 0.243027
9893.42, 0.245350
9912.34, 0.247831
9931.33, 0.250418
9950.39, 0.252741
9969.52, 0.254906
9988.74, 0.256912
10008.0, 0.258496
10027.4, 0.259605
10046.8, 0.260608
10066.3, 0.261453
10085.9, 0.262034
10105.6, 0.262773
10125.3, 0.263301
10145.1, 0.263354
10165.0, 0.262826
10185.0, 0.262192
10205.0, 0.261347
10225.2, 0.259922
10245.4, 0.257757
10265.7, 0.254906
10286.0, 0.251422
10306.5, 0.246987
10327.0, 0.241337
10347.6, 0.234368
10368.3, 0.225287
10389.1, 0.213302
10409.9, 0.197832
10430.9, 0.178772
10451.9, 0.157284
10473.0, 0.135901
10494.2, 0.116894
10515.5, 0.100632
10536.9, 0.0865350
10558.4, 0.0743920
10579.9, 0.0642020
10601.5, 0.0554370
10623.3, 0.0477820
10645.1, 0.0413930
10667.0, 0.0369050
10689.0, 0.0349520
10711.1, 0.0365890
10733.2, 0.0429770
10755.5, 0.0550680
10777.9, 0.0723330
10800.3, 0.0931350
10822.9, 0.115046
10845.5, 0.135901
10868.2, 0.154327
10891.1, 0.169638
10914.0, 0.181834
10937.0, 0.191391
10960.2, 0.198888
10983.4, 0.204273
11006.7, 0.207652
11030.1, 0.209500
11053.6, 0.209923
11077.3, 0.208233
11101.0, 0.204168
11124.8, 0.197199
11148.7, 0.186903
11172.7, 0.173968
11196.9, 0.160504
11221.1, 0.149786
11245.4, 0.145668
11269.9, 0.149681
11294.4, 0.159712
11319.1, 0.172384
11343.9, 0.184158
11368.8, 0.193028
11393.7, 0.198835
11418.8, 0.201475
11444.0, 0.200419
11469.4, 0.195826
11494.8, 0.188540
11520.3, 0.179353
11546.0, 0.169902
11571.8, 0.161032
11597.7, 0.153007
11623.7, 0.145827
11649.8, 0.139755
11676.0, 0.134792
11702.4, 0.130410
11728.9, 0.126503
11755.5, 0.122965
11782.2, 0.119745
11809.0, 0.117210
11836.0, 0.115046
11863.0, 0.112881
11890.3, 0.110611
11917.6, 0.108604
11945.0, 0.106915
11972.6, 0.104961
12000.4, 0.103377
12028.2, 0.101952
12056.2, 0.100685
12084.3, 0.0994700
12112.5, 0.0982030
12140.9, 0.0968830
12169.4, 0.0959330
12198.0, 0.0948770
12226.8, 0.0939790
12255.7, 0.0929760
12284.7, 0.0921320
12313.9, 0.0915510
12343.2, 0.0911280
12372.7, 0.0906530
12402.3, 0.0899140
12432.0, 0.0890170
12461.9, 0.0882250
12491.9, 0.0874850
12522.1, 0.0870100
12552.4, 0.0865880
12582.9, 0.0860600
12613.5, 0.0854260
12644.3, 0.0848980
12675.2, 0.0844230
12706.3, 0.0837370
12737.5, 0.0831560
12768.9, 0.0823640
12800.4, 0.0817300
12832.1, 0.0815190
12863.9, 0.0808860
12895.9, 0.0802520
12928.1, 0.0798300
12960.4, 0.0795660
12992.9, 0.0789850
13025.5, 0.0779820
13058.3, 0.0770840
13091.3, 0.0763980
13124.4, 0.0759230
13157.8, 0.0755530
13191.2, 0.0748670
13224.9, 0.0739690
13258.7, 0.0731770
13292.7, 0.0727550
13326.9, 0.0722270
13361.2, 0.0715930
13395.7, 0.0710130
13430.4, 0.0705900
13465.3, 0.0702210
13500.4, 0.0699570
13535.7, 0.0694290
13571.1, 0.0690590
13606.7, 0.0687950
13642.5, 0.0682140
13678.5, 0.0674750
13714.7, 0.0667890
13751.1, 0.0659970
13787.6, 0.0652050
13824.4, 0.0644130
13861.4, 0.0636740
13898.5, 0.0629350
13935.9, 0.0622480
13973.5, 0.0613510
14011.2, 0.0604000
14049.2, 0.0598200
14087.4, 0.0592390
14125.8, 0.0583940
14164.3, 0.0574960
14203.2, 0.0565460
14242.2, 0.0558070
14281.4, 0.0550150
14320.9, 0.0541170
14360.5, 0.0531670
14400.4, 0.0521110
14440.5, 0.0508970
14480.9, 0.0496820
14521.4, 0.0483620
14562.2, 0.0472540
14603.3, 0.0461980
14644.5, 0.0448780
14686.0, 0.0434520
14727.7, 0.0419740
14769.7, 0.0404960
14811.9, 0.0389120
14854.3, 0.0377500
14897.0, 0.0367470
14939.9, 0.0352160
14983.1, 0.0340020
15026.5, 0.0323120
15070.2, 0.0305700
15114.2, 0.0290910
15158.3, 0.0275600
15202.8, 0.0260290
15247.5, 0.0245510
15292.5, 0.0231250
15337.7, 0.0222280
15383.2, 0.0210130
15429.0, 0.0194820
15475.1, 0.0181100
15521.4, 0.0173180
15568.0, 0.0170540
15614.9, 0.0177400
15662.1, 0.0190070
15709.6, 0.0211190
15757.3, 0.0228610
15805.4, 0.0238120
15853.7, 0.0231780
15902.3, 0.0217000
15951.2, 0.0197990
16000.5, 0.0184260
16050.0, 0.0176340
16099.8, 0.0167370
16150.0, 0.0156810
16200.5, 0.0154700
16251.3, 0.0158920
16302.4, 0.0170010
16353.8, 0.0192180
16405.5, 0.0228610
16457.6, 0.0283520
16510.0, 0.0360080
16562.8, 0.0461980
16615.9, 0.0592390
16669.3, 0.0750250
16723.1, 0.0921320
16777.2, 0.108974
16831.7, 0.124391
16886.5, 0.137643
16941.7, 0.148994
16997.2, 0.158445
17053.1, 0.165890
17109.4, 0.171856
17166.1, 0.176185
17223.1, 0.178983
17280.5, 0.181043
17338.3, 0.181729
17396.5, 0.180831
17455.1, 0.178244
17514.0, 0.174337
17573.4, 0.168318
17633.2, 0.159818
17693.4, 0.149311
17754.0, 0.136165
17815.0, 0.120853
17876.4, 0.105595
17938.3, 0.0910230
18000.5, 0.0780350
18063.3, 0.0667890
18126.4, 0.0567570
18190.0, 0.0473070
18254.1, 0.0398090
18318.6, 0.0340540
18383.5, 0.0294080
18449.0, 0.0280880
18514.9, 0.0317840
18581.2, 0.0412880
18648.0, 0.0581300
18715.4, 0.0777710
18783.2, 0.0951410
18851.5, 0.105965
18920.3, 0.110452
18989.6, 0.109080
19059.4, 0.104592
19129.7, 0.102585
19200.6, 0.109396
19272.0, 0.127770
19343.9, 0.152849
19416.3, 0.178033
19489.3, 0.200208
19562.8, 0.218001
19637.0, 0.232150
19711.6, 0.242604
19786.8, 0.250207
19862.6, 0.256332
19939.0, 0.260608
20016.0, 0.262139
20093.6, 0.263354
20171.8, 0.264938
20250.6, 0.266205
20330.0, 0.267261
20410.0, 0.268211
20490.7, 0.269320
20572.0, 0.269161
20654.0, 0.268634
20736.6, 0.268475
20819.9, 0.267789
20903.8, 0.267472
20988.5, 0.267155
21073.8, 0.265677
21159.8, 0.263195
21246.5, 0.257546
21334.0, 0.249362
21422.1, 0.238592
21511.0, 0.221221
21600.7, 0.198782
21691.0, 0.179142
21782.1, 0.171909
21874.0, 0.183366
21966.7, 0.204590
22060.2, 0.224284
22154.5, 0.237008
22249.6, 0.245086
22345.5, 0.246881
22442.2, 0.239489
22539.8, 0.228243
22638.2, 0.214463
22737.5, 0.200578
22837.7, 0.188593
22938.7, 0.176819
23040.7, 0.167157
23143.5, 0.159712
23247.3, 0.153905
23352.1, 0.151792
23457.7, 0.146743
23564.4, 0.143572
23672.0, 0.139494
23780.5, 0.134315
23890.1, 0.129072
24000.7, 0.123311
24112.3, 0.118586
24225.0, 0.113666
24338.7, 0.108876
24453.5, 0.106093
24569.4, 0.101432
24686.4, 0.0944410
24804.5, 0.0878390
24923.8, 0.0833720
25044.2, 0.0769640
25165.8, 0.0709440
25288.6, 0.0699090
25412.5, 0.0745690
25537.7, 0.0854440
25664.1, 0.106093
25791.8, 0.131855
25920.8, 0.155547
26051.1, 0.176260
26182.6, 0.197103
26315.5, 0.211085
26449.8, 0.218659
26585.4, 0.224420
26722.5, 0.226944
26860.9, 0.222996
27000.8, 0.211668
27142.1, 0.198657
27285.0, 0.187329
27429.4, 0.176325
27575.3, 0.168299
27722.7, 0.161502
27871.8, 0.152569
28022.4, 0.144219
28174.7, 0.136257
28328.7, 0.129719
28484.4, 0.122340
28641.7, 0.115608
28800.9, 0.113860
28961.8, 0.117421
29124.5, 0.127454
29289.0, 0.140659
29455.4, 0.149009
29623.8, 0.151210
29794.0, 0.149333
29966.3, 0.143895
30140.5, 0.136451
30316.7, 0.129655
30495.1, 0.122146
30675.5, 0.116838
30858.1, 0.112566
31042.8, 0.113860
31229.8, 0.122016
31419.1, 0.134250
31610.7, 0.145319
31804.6, 0.151922
32000.9, 0.152699
32199.7, 0.149915
32400.9, 0.147261
32604.8, 0.145190
32811.1, 0.141759
33020.1, 0.138199
33231.8, 0.139494
33446.2, 0.141889
33663.4, 0.143377
33883.4, 0.141889
34106.3, 0.139688
34332.1, 0.137616
34561.0, 0.136904
34792.9, 0.137616
35028.0, 0.138458
35266.3, 0.138070
35507.8, 0.136257
35752.7, 0.134250
36001.0, 0.133927
36252.8, 0.137746
36508.1, 0.139364
36767.0, 0.138458
37029.7, 0.136904
37296.1, 0.135092
37566.3, 0.132179
37840.5, 0.128166
38118.8, 0.125059
38401.2, 0.123440
38687.8, 0.120981
38978.6, 0.117744
39273.9, 0.111401
39573.7, 0.105445
39878.1, 0.100202
40187.3, 0.0918520
40501.2, 0.0854440
40820.0, 0.0808480
41144.0, 0.0805240
41473.2, 0.0885510
41807.6, 0.102403
42147.5, 0.113407
42493.0, 0.118521
42844.2, 0.118068
43201.2, 0.117809
43564.3, 0.116773
43933.5, 0.112177
44309.0, 0.112113
44691.0, 0.111595
45079.6, 0.109200
45475.0, 0.108423
45877.5, 0.104863
46287.1, 0.0981310
46704.2, 0.0908810
47128.7, 0.0845380
47561.1, 0.0770940
48001.5, 0.0685490
48450.1, 0.0652480
48907.2, 0.0704910
49373.0, 0.0937940
49847.7, 0.131985
50331.5, 0.157747
50825.0, 0.168946
51328.2, 0.170435
51841.5, 0.167198
52365.1, 0.160143
52899.4, 0.151598
53444.8, 0.146679
54001.5, 0.143636
54570.1, 0.139364
55150.6, 0.136840
55743.6, 0.134962
56349.5, 0.128101
56968.7, 0.125123
57601.7, 0.125577
58248.9, 0.115284
58910.9, 0.106740
59588.1, 0.0989080
60281.0, 0.0858970
60990.2, 0.0726920
61716.3, 0.0644710
62459.8, 0.0639530
63221.6, 0.0796180
64002.1, 0.104475
64802.1, 0.105057
65622.1, 0.0944410
66463.4, 0.0781940
67326.6, 0.0728860
68212.4, 0.0888750
69121.9, 0.128813
70056.0, 0.168169
71015.7, 0.188365
72002.0, 0.207201
73016.3, 0.227074
74059.4, 0.238984
75132.7, 0.243515
76237.6, 0.242220
77375.5, 0.230634
78547.9, 0.211603
79756.3, 0.197751
81002.5, 0.185387
82288.5, 0.165580
83615.7, 0.153346
84986.5, 0.153605
86402.9, 0.166810
87867.4, 0.190566
89382.4, 0.198657
90950.5, 0.194773
92574.6, 0.194708
94257.2, 0.198592
96002.7, 0.197751
97814.1, 0.196521
99695.1, 0.187070
101650.0, 0.190372
103683.0, 0.200275
105799.0, 0.206942
108003.0, 0.214257
110301.0, 0.215552
112699.0, 0.208108
115204.0, 0.210114
117822.0, 0.219630
120562.0, 0.217429
123433.0, 0.217688
126443.0, 0.217882
129604.0, 0.214710
132926.0, 0.218400
136424.0, 0.221895
140111.0, 0.233676
144003.0, 0.260086
148118.0, 0.285654
152474.0, 0.285460
157095.0, 0.271025
162004.0, 0.282029
167231.0, 0.299960
172805.0, 0.303455
178764.0, 0.279893
185148.0, 0.271673
192005.0, 0.341063
199390.0, 0.342552
207366.0, 0.237236
216006.0, 0.224873
