Database of Origin, USGS Spectral Database
Sample Description, See USGS database for additional info
Date Added,2016-08-03 21:24:24.685457

Data ID,USGS_cli10          
Sample ID, clinochlore_nmnh83369.5457
Mineral Name, clinochlore
Material Class,Phyllosilicate

Wavelength
1356.75, 0.452178
1357.11, 0.452967
1357.46, 0.454283
1357.82, 0.454020
1358.18, 0.454283
1358.53, 0.453757
1358.89, 0.453625
1359.24, 0.453757
1359.6, 0.453099
1359.96, 0.452967
1360.31, 0.453230
1360.67, 0.453625
1361.03, 0.452967
1361.39, 0.453230
1361.74, 0.453494
1362.1, 0.453888
1362.46, 0.453099
1362.82, 0.451914
1363.18, 0.452836
1363.53, 0.453230
1363.89, 0.453494
1364.25, 0.452967
1364.61, 0.452178
1364.97, 0.452441
1365.33, 0.451914
1365.69, 0.451388
1366.05, 0.451520
1366.41, 0.451256
1366.77, 0.450993
1367.13, 0.450598
1367.49, 0.450204
1367.85, 0.450467
1368.21, 0.451125
1368.57, 0.450467
1368.93, 0.449019
1369.3, 0.449414
1369.66, 0.450335
1370.02, 0.450335
1370.38, 0.449546
1370.74, 0.447703
1371.11, 0.447440
1371.47, 0.447703
1371.83, 0.447572
1372.19, 0.447703
1372.56, 0.447572
1372.92, 0.447572
1373.29, 0.447835
1373.65, 0.447045
1374.01, 0.446124
1374.38, 0.446519
1374.74, 0.446387
1375.11, 0.445466
1375.47, 0.445334
1375.84, 0.444545
1376.2, 0.444940
1376.57, 0.446256
1376.93, 0.445203
1377.3, 0.444808
1377.67, 0.444282
1378.03, 0.443624
1378.4, 0.443755
1378.76, 0.444150
1379.13, 0.443624
1379.5, 0.442044
1379.87, 0.440728
1380.23, 0.440202
1380.6, 0.439676
1380.97, 0.439939
1381.34, 0.440070
1381.7, 0.438491
1382.07, 0.437570
1382.44, 0.436517
1382.81, 0.434675
1383.18, 0.433227
1383.55, 0.430858
1383.92, 0.427568
1384.29, 0.423752
1384.66, 0.418751
1385.03, 0.413487
1385.4, 0.407434
1385.77, 0.401248
1386.14, 0.395063
1386.51, 0.388220
1386.88, 0.382824
1387.25, 0.379271
1387.62, 0.374665
1387.99, 0.370059
1388.36, 0.367032
1388.74, 0.364006
1389.11, 0.362821
1389.48, 0.362821
1389.85, 0.362295
1390.23, 0.361505
1390.6, 0.362953
1390.97, 0.364137
1391.35, 0.364664
1391.72, 0.367296
1392.09, 0.371244
1392.47, 0.373086
1392.84, 0.375718
1393.21, 0.379008
1393.59, 0.381903
1393.96, 0.384535
1394.34, 0.387562
1394.71, 0.390194
1395.09, 0.392300
1395.46, 0.394537
1395.84, 0.396511
1396.22, 0.398090
1396.59, 0.400459
1396.97, 0.403222
1397.35, 0.405328
1397.72, 0.406644
1398.1, 0.407697
1398.48, 0.409408
1398.85, 0.410987
1399.23, 0.412171
1399.61, 0.411645
1399.99, 0.412040
1400.37, 0.413487
1400.74, 0.413750
1401.12, 0.414277
1401.5, 0.414672
1401.88, 0.414672
1402.26, 0.413092
1402.64, 0.413356
1403.02, 0.413487
1403.4, 0.413092
1403.78, 0.413882
1404.16, 0.414408
1404.54, 0.413882
1404.92, 0.413224
1405.3, 0.413224
1405.68, 0.412698
1406.06, 0.411513
1406.44, 0.411645
1406.83, 0.411382
1407.21, 0.409934
1407.59, 0.408881
1407.97, 0.408618
1408.35, 0.408750
1408.74, 0.408355
1409.12, 0.408750
1409.5, 0.408486
1409.89, 0.407170
1410.27, 0.407170
1410.65, 0.406512
1411.04, 0.405854
1411.42, 0.405328
1411.81, 0.405591
1412.19, 0.406249
1412.58, 0.405986
1412.96, 0.405854
1413.35, 0.405723
1413.73, 0.405065
1414.12, 0.404670
1414.5, 0.403749
1414.89, 0.403354
1415.28, 0.404012
1415.66, 0.403880
1416.05, 0.402828
1416.44, 0.402828
1416.82, 0.402959
1417.21, 0.402433
1417.6, 0.401643
1417.98, 0.401380
1418.37, 0.401775
1418.76, 0.401380
1419.15, 0.401248
1419.54, 0.401512
1419.93, 0.401512
1420.32, 0.401775
1420.71, 0.400722
1421.09, 0.400196
1421.48, 0.399669
1421.88, 0.399538
1422.27, 0.399143
1422.66, 0.398748
1423.05, 0.398880
1423.44, 0.398353
1423.83, 0.397958
1424.22, 0.397564
1424.61, 0.396774
1425.0, 0.396642
1425.39, 0.396642
1425.78, 0.397169
1426.18, 0.397300
1426.57, 0.397432
1426.96, 0.396379
1427.36, 0.395721
1427.75, 0.395853
1428.14, 0.395721
1428.54, 0.394142
1428.93, 0.393484
1429.32, 0.394405
1429.72, 0.395195
1430.11, 0.393879
1430.51, 0.393616
1430.9, 0.392958
1431.3, 0.392958
1431.69, 0.392826
1432.09, 0.392431
1432.48, 0.392826
1432.88, 0.393221
1433.28, 0.392694
1433.67, 0.393484
1434.07, 0.394405
1434.46, 0.394010
1434.86, 0.394142
1435.26, 0.394010
1435.66, 0.393221
1436.05, 0.393221
1436.45, 0.394142
1436.85, 0.393879
1437.25, 0.393484
1437.65, 0.392958
1438.05, 0.392826
1438.44, 0.394142
1438.84, 0.394537
1439.24, 0.394010
1439.64, 0.393616
1440.04, 0.394274
1440.44, 0.395458
1440.84, 0.394932
1441.24, 0.394142
1441.65, 0.393879
1442.05, 0.394142
1442.45, 0.394010
1442.85, 0.393616
1443.25, 0.394668
1443.65, 0.395063
1444.05, 0.394800
1444.46, 0.395063
1444.86, 0.394932
1445.26, 0.395195
1445.67, 0.395195
1446.07, 0.395590
1446.47, 0.396116
1446.88, 0.396379
1447.28, 0.396248
1447.68, 0.394932
1448.09, 0.395590
1448.49, 0.396379
1448.9, 0.396116
1449.3, 0.396379
1449.71, 0.396511
1450.11, 0.396379
1450.52, 0.396511
1450.93, 0.397169
1451.33, 0.398090
1451.74, 0.397827
1452.14, 0.397827
1452.55, 0.398222
1452.96, 0.398353
1453.36, 0.398880
1453.77, 0.399801
1454.18, 0.399538
1454.59, 0.399143
1455.0, 0.399143
1455.41, 0.399669
1455.81, 0.400064
1456.22, 0.399669
1456.63, 0.399801
1457.04, 0.400722
1457.45, 0.400327
1457.86, 0.399538
1458.27, 0.399801
1458.68, 0.400459
1459.09, 0.401248
1459.5, 0.401117
1459.91, 0.400722
1460.32, 0.400722
1460.74, 0.400196
1461.15, 0.400590
1461.56, 0.401775
1461.97, 0.402301
1462.39, 0.402696
1462.8, 0.403354
1463.21, 0.403222
1463.62, 0.402959
1464.04, 0.402696
1464.45, 0.402828
1464.86, 0.403091
1465.28, 0.402564
1465.69, 0.401643
1466.11, 0.402433
1466.52, 0.403749
1466.94, 0.403749
1467.35, 0.403091
1467.77, 0.403091
1468.18, 0.403222
1468.6, 0.403749
1469.02, 0.404144
1469.43, 0.404144
1469.85, 0.404275
1470.27, 0.403749
1470.68, 0.403749
1471.1, 0.404538
1471.52, 0.405196
1471.94, 0.405065
1472.35, 0.404802
1472.77, 0.404670
1473.19, 0.404275
1473.61, 0.403880
1474.03, 0.403222
1474.45, 0.404275
1474.87, 0.405196
1475.29, 0.405591
1475.71, 0.404802
1476.13, 0.404670
1476.55, 0.404275
1476.97, 0.404144
1477.39, 0.405460
1477.81, 0.406512
1478.23, 0.405986
1478.65, 0.405723
1479.07, 0.405196
1479.5, 0.404933
1479.92, 0.405328
1480.34, 0.405196
1480.76, 0.404933
1481.19, 0.404538
1481.61, 0.404144
1482.03, 0.404933
1482.46, 0.405065
1482.88, 0.405196
1483.31, 0.405328
1483.73, 0.406118
1484.16, 0.406249
1484.58, 0.405591
1485.01, 0.405723
1485.43, 0.405854
1485.86, 0.405591
1486.28, 0.405328
1486.71, 0.405723
1487.14, 0.406512
1487.56, 0.406512
1487.99, 0.406907
1488.42, 0.407302
1488.84, 0.406776
1489.27, 0.406644
1489.7, 0.407302
1490.13, 0.407039
1490.56, 0.405986
1490.98, 0.405591
1491.41, 0.405723
1491.84, 0.406249
1492.27, 0.406249
1492.7, 0.406118
1493.13, 0.406381
1493.56, 0.406381
1493.99, 0.406381
1494.42, 0.406907
1494.85, 0.406907
1495.29, 0.406249
1495.72, 0.406512
1496.15, 0.406381
1496.58, 0.406644
1497.01, 0.406776
1497.44, 0.406249
1497.88, 0.406118
1498.31, 0.406776
1498.74, 0.406776
1499.18, 0.406512
1499.61, 0.406381
1500.04, 0.406512
1500.48, 0.406907
1500.91, 0.407302
1501.35, 0.407697
1501.78, 0.407828
1502.22, 0.407170
1502.65, 0.406512
1503.09, 0.406381
1503.53, 0.406776
1503.96, 0.407302
1504.4, 0.407170
1504.83, 0.406907
1505.27, 0.406776
1505.71, 0.407170
1506.15, 0.407170
1506.58, 0.406907
1507.02, 0.407302
1507.46, 0.408092
1507.9, 0.408355
1508.34, 0.408223
1508.78, 0.407828
1509.21, 0.407960
1509.66, 0.407960
1510.09, 0.408618
1510.53, 0.409408
1510.97, 0.409144
1511.42, 0.408355
1511.86, 0.408223
1512.3, 0.408486
1512.74, 0.408355
1513.18, 0.409408
1513.62, 0.409802
1514.06, 0.408881
1514.51, 0.408486
1514.95, 0.408750
1515.39, 0.408618
1515.83, 0.408750
1516.28, 0.409013
1516.72, 0.409671
1517.16, 0.410066
1517.61, 0.410197
1518.05, 0.410329
1518.5, 0.410855
1518.94, 0.411382
1519.39, 0.410987
1519.83, 0.410197
1520.28, 0.410066
1520.73, 0.410592
1521.17, 0.410724
1521.62, 0.410724
1522.07, 0.411118
1522.51, 0.410987
1522.96, 0.411118
1523.41, 0.411513
1523.85, 0.411513
1524.3, 0.411250
1524.75, 0.411118
1525.2, 0.411513
1525.65, 0.412434
1526.1, 0.412566
1526.55, 0.411776
1527.0, 0.411908
1527.45, 0.412171
1527.9, 0.412171
1528.35, 0.412303
1528.8, 0.412171
1529.25, 0.412434
1529.7, 0.412698
1530.15, 0.412961
1530.6, 0.413092
1531.05, 0.412303
1531.51, 0.412040
1531.96, 0.413356
1532.41, 0.414408
1532.87, 0.414540
1533.32, 0.413882
1533.77, 0.413619
1534.23, 0.413882
1534.68, 0.414277
1535.14, 0.414540
1535.59, 0.414540
1536.05, 0.414672
1536.5, 0.415330
1536.96, 0.415856
1537.41, 0.415724
1537.87, 0.415593
1538.32, 0.416251
1538.78, 0.416777
1539.24, 0.416251
1539.7, 0.415856
1540.15, 0.416777
1540.61, 0.417040
1541.07, 0.416646
1541.53, 0.417040
1541.98, 0.417698
1542.44, 0.417962
1542.9, 0.417962
1543.36, 0.417830
1543.82, 0.417304
1544.28, 0.417698
1544.74, 0.417830
1545.2, 0.417567
1545.66, 0.418356
1546.12, 0.419541
1546.59, 0.420462
1547.05, 0.420199
1547.51, 0.419804
1547.97, 0.419146
1548.43, 0.419672
1548.9, 0.420594
1549.36, 0.420988
1549.82, 0.421515
1550.29, 0.421910
1550.75, 0.421910
1551.21, 0.421383
1551.68, 0.421120
1552.14, 0.421778
1552.61, 0.422173
1553.07, 0.422173
1553.54, 0.422699
1554.0, 0.423226
1554.47, 0.423357
1554.93, 0.423226
1555.4, 0.423094
1555.87, 0.422831
1556.34, 0.423357
1556.8, 0.423620
1557.27, 0.424015
1557.74, 0.424410
1558.21, 0.424542
1558.68, 0.424936
1559.14, 0.425068
1559.61, 0.425200
1560.08, 0.425594
1560.55, 0.425989
1561.02, 0.426384
1561.49, 0.427042
1561.96, 0.427042
1562.43, 0.427042
1562.9, 0.427305
1563.38, 0.427700
1563.85, 0.428226
1564.32, 0.428358
1564.79, 0.427963
1565.26, 0.428226
1565.74, 0.428753
1566.21, 0.428753
1566.68, 0.428753
1567.16, 0.429148
1567.63, 0.429542
1568.1, 0.429806
1568.58, 0.429937
1569.05, 0.430464
1569.53, 0.430858
1570.0, 0.430858
1570.48, 0.430990
1570.96, 0.430990
1571.43, 0.430990
1571.91, 0.431385
1572.39, 0.431253
1572.86, 0.431648
1573.34, 0.432174
1573.82, 0.432832
1574.3, 0.432964
1574.77, 0.433227
1575.25, 0.433622
1575.73, 0.433359
1576.21, 0.433096
1576.69, 0.433359
1577.17, 0.434148
1577.65, 0.434543
1578.13, 0.434148
1578.61, 0.434017
1579.09, 0.434675
1579.57, 0.434806
1580.05, 0.434280
1580.54, 0.434412
1581.02, 0.435070
1581.5, 0.435859
1581.98, 0.435991
1582.47, 0.435859
1582.95, 0.436122
1583.43, 0.436780
1583.92, 0.436912
1584.4, 0.437044
1584.88, 0.437175
1585.37, 0.437570
1585.85, 0.437438
1586.34, 0.437702
1586.82, 0.437965
1587.31, 0.437833
1587.8, 0.438096
1588.28, 0.438096
1588.77, 0.437833
1589.26, 0.438623
1589.74, 0.439281
1590.23, 0.439281
1590.72, 0.439281
1591.21, 0.439807
1591.7, 0.439807
1592.19, 0.440202
1592.67, 0.440334
1593.16, 0.439939
1593.65, 0.440465
1594.14, 0.440860
1594.63, 0.441255
1595.12, 0.441650
1595.61, 0.442044
1596.11, 0.442308
1596.6, 0.441518
1597.09, 0.441255
1597.58, 0.441650
1598.08, 0.442308
1598.57, 0.442966
1599.06, 0.443360
1599.55, 0.443624
1600.05, 0.443755
1600.54, 0.443887
1601.04, 0.444018
1601.53, 0.443887
1602.03, 0.444018
1602.52, 0.443887
1603.02, 0.444413
1603.51, 0.445598
1604.01, 0.445466
1604.5, 0.445466
1605.0, 0.445334
1605.5, 0.445071
1606.0, 0.445729
1606.49, 0.445992
1606.99, 0.446124
1607.49, 0.446519
1607.99, 0.447177
1608.49, 0.447440
1608.99, 0.447440
1609.49, 0.447440
1609.99, 0.448098
1610.49, 0.448756
1610.99, 0.448888
1611.49, 0.448756
1611.99, 0.448230
1612.49, 0.448624
1612.99, 0.449151
1613.49, 0.449282
1614.0, 0.449282
1614.5, 0.449546
1615.0, 0.449940
1615.51, 0.450204
1616.01, 0.450467
1616.51, 0.451125
1617.02, 0.450993
1617.52, 0.451256
1618.03, 0.451520
1618.53, 0.451783
1619.04, 0.452046
1619.54, 0.452046
1620.05, 0.452309
1620.55, 0.452967
1621.06, 0.452704
1621.57, 0.452836
1622.08, 0.452836
1622.58, 0.452704
1623.09, 0.453625
1623.6, 0.454546
1624.11, 0.454020
1624.62, 0.453888
1625.13, 0.454152
1625.64, 0.453888
1626.15, 0.454152
1626.66, 0.454546
1627.17, 0.454810
1627.68, 0.455204
1628.19, 0.455599
1628.7, 0.455599
1629.21, 0.455468
1629.72, 0.455468
1630.24, 0.455994
1630.75, 0.455862
1631.26, 0.455468
1631.78, 0.455862
1632.29, 0.456784
1632.8, 0.457178
1633.32, 0.456915
1633.83, 0.456389
1634.35, 0.457047
1634.86, 0.458231
1635.38, 0.458363
1635.9, 0.458231
1636.41, 0.458231
1636.93, 0.458494
1637.45, 0.458231
1637.96, 0.457705
1638.48, 0.458363
1639.0, 0.459152
1639.52, 0.459547
1640.04, 0.459152
1640.56, 0.459021
1641.08, 0.458889
1641.59, 0.459284
1642.11, 0.460074
1642.63, 0.459942
1643.16, 0.460074
1643.68, 0.460863
1644.2, 0.460732
1644.72, 0.460863
1645.24, 0.461258
1645.76, 0.461390
1646.29, 0.460863
1646.81, 0.461126
1647.33, 0.461653
1647.86, 0.461258
1648.38, 0.461258
1648.9, 0.461916
1649.43, 0.462706
1649.95, 0.462837
1650.48, 0.462574
1651.0, 0.462179
1651.53, 0.461653
1652.06, 0.462311
1652.58, 0.462574
1653.11, 0.462442
1653.64, 0.461916
1654.17, 0.462837
1654.69, 0.463495
1655.22, 0.463364
1655.75, 0.463890
1656.28, 0.463758
1656.81, 0.463495
1657.34, 0.464153
1657.87, 0.463890
1658.4, 0.463495
1658.93, 0.463495
1659.46, 0.464153
1659.99, 0.464943
1660.52, 0.464943
1661.05, 0.464548
1661.59, 0.464680
1662.12, 0.464943
1662.65, 0.465601
1663.19, 0.465469
1663.72, 0.465469
1664.26, 0.465338
1664.79, 0.465601
1665.32, 0.465732
1665.86, 0.465864
1666.39, 0.465996
1666.93, 0.465864
1667.47, 0.466259
1668.0, 0.466390
1668.54, 0.466390
1669.08, 0.466522
1669.61, 0.467312
1670.15, 0.467180
1670.69, 0.466917
1671.23, 0.466917
1671.77, 0.467312
1672.31, 0.467970
1672.85, 0.468101
1673.39, 0.468496
1673.93, 0.468496
1674.47, 0.468364
1675.01, 0.468496
1675.55, 0.468759
1676.09, 0.468628
1676.64, 0.469154
1677.18, 0.470075
1677.72, 0.470207
1678.26, 0.469812
1678.81, 0.469549
1679.35, 0.470075
1679.89, 0.470075
1680.44, 0.469944
1680.98, 0.470207
1681.53, 0.470075
1682.07, 0.469944
1682.62, 0.470470
1683.17, 0.470865
1683.71, 0.471128
1684.26, 0.471391
1684.81, 0.471128
1685.36, 0.471523
1685.9, 0.471918
1686.45, 0.471918
1687.0, 0.472049
1687.55, 0.471918
1688.1, 0.471654
1688.65, 0.472312
1689.2, 0.472839
1689.75, 0.472576
1690.3, 0.472576
1690.85, 0.472839
1691.41, 0.472839
1691.96, 0.473628
1692.51, 0.474155
1693.06, 0.473628
1693.61, 0.473365
1694.17, 0.473892
1694.72, 0.474023
1695.28, 0.473365
1695.83, 0.473628
1696.39, 0.474550
1696.94, 0.474813
1697.5, 0.474550
1698.05, 0.474681
1698.61, 0.475076
1699.17, 0.475076
1699.72, 0.474944
1700.28, 0.474944
1700.84, 0.474681
1701.4, 0.474944
1701.95, 0.474944
1702.51, 0.474681
1703.07, 0.474813
1703.63, 0.475208
1704.19, 0.475602
1704.75, 0.475997
1705.31, 0.476392
1705.88, 0.476392
1706.44, 0.476787
1707.0, 0.476655
1707.56, 0.476524
1708.12, 0.476392
1708.69, 0.476524
1709.25, 0.476787
1709.81, 0.477182
1710.38, 0.476787
1710.94, 0.476787
1711.51, 0.477445
1712.07, 0.477708
1712.64, 0.477708
1713.2, 0.478103
1713.77, 0.477840
1714.34, 0.477840
1714.9, 0.477971
1715.47, 0.477971
1716.04, 0.478234
1716.61, 0.478629
1717.18, 0.478892
1717.74, 0.478498
1718.31, 0.478366
1718.88, 0.478366
1719.45, 0.478498
1720.02, 0.479024
1720.59, 0.478892
1721.17, 0.479156
1721.74, 0.479024
1722.31, 0.478892
1722.88, 0.479550
1723.45, 0.480077
1724.03, 0.479682
1724.6, 0.479287
1725.18, 0.479024
1725.75, 0.479419
1726.33, 0.480472
1726.9, 0.480603
1727.48, 0.480340
1728.05, 0.480603
1728.63, 0.480735
1729.2, 0.480472
1729.78, 0.479945
1730.36, 0.480077
1730.94, 0.480735
1731.51, 0.480866
1732.09, 0.480472
1732.67, 0.480866
1733.25, 0.481393
1733.83, 0.481261
1734.41, 0.480866
1734.99, 0.481130
1735.57, 0.481524
1736.15, 0.481393
1736.73, 0.481261
1737.32, 0.480998
1737.9, 0.481130
1738.48, 0.481393
1739.07, 0.481261
1739.65, 0.481656
1740.23, 0.481919
1740.82, 0.481919
1741.4, 0.482182
1741.99, 0.482182
1742.57, 0.482051
1743.16, 0.482182
1743.74, 0.482446
1744.33, 0.482709
1744.92, 0.482709
1745.51, 0.483104
1746.09, 0.483104
1746.68, 0.482972
1747.27, 0.482972
1747.86, 0.482840
1748.45, 0.482972
1749.04, 0.483367
1749.63, 0.483104
1750.22, 0.483367
1750.81, 0.483498
1751.4, 0.483367
1751.99, 0.483893
1752.59, 0.484025
1753.18, 0.484156
1753.77, 0.483893
1754.37, 0.483367
1754.96, 0.483235
1755.56, 0.483104
1756.15, 0.483498
1756.74, 0.484551
1757.34, 0.484683
1757.94, 0.484551
1758.53, 0.484814
1759.13, 0.484946
1759.73, 0.484683
1760.32, 0.484551
1760.92, 0.485209
1761.52, 0.485341
1762.12, 0.485472
1762.72, 0.485867
1763.32, 0.485736
1763.92, 0.485209
1764.52, 0.485341
1765.12, 0.485867
1765.72, 0.485999
1766.32, 0.485736
1766.92, 0.485472
1767.53, 0.485078
1768.13, 0.485472
1768.73, 0.486130
1769.34, 0.486262
1769.94, 0.486394
1770.55, 0.486130
1771.15, 0.486525
1771.76, 0.486920
1772.36, 0.486657
1772.97, 0.486788
1773.57, 0.486788
1774.18, 0.486657
1774.79, 0.486657
1775.4, 0.486525
1776.0, 0.486657
1776.61, 0.487183
1777.22, 0.487578
1777.83, 0.487578
1778.44, 0.487315
1779.05, 0.486920
1779.66, 0.486657
1780.27, 0.486920
1780.88, 0.487052
1781.5, 0.487183
1782.11, 0.487841
1782.72, 0.487841
1783.33, 0.487183
1783.95, 0.487315
1784.56, 0.487578
1785.18, 0.486920
1785.79, 0.486788
1786.41, 0.487183
1787.02, 0.487446
1787.64, 0.487315
1788.26, 0.487183
1788.87, 0.486788
1789.49, 0.487315
1790.11, 0.487841
1790.73, 0.487710
1791.35, 0.487710
1791.96, 0.487841
1792.58, 0.487973
1793.21, 0.487841
1793.83, 0.487446
1794.45, 0.487183
1795.07, 0.487315
1795.69, 0.487315
1796.31, 0.487183
1796.93, 0.486788
1797.56, 0.486788
1798.18, 0.486657
1798.8, 0.486920
1799.43, 0.487183
1800.05, 0.486920
1800.68, 0.486525
1801.3, 0.486394
1801.93, 0.486262
1802.56, 0.486525
1803.18, 0.486657
1803.81, 0.486394
1804.44, 0.486262
1805.07, 0.486394
1805.7, 0.486394
1806.33, 0.486262
1806.95, 0.486262
1807.58, 0.485736
1808.22, 0.485604
1808.85, 0.485999
1809.48, 0.486262
1810.11, 0.486262
1810.74, 0.485867
1811.38, 0.485472
1812.01, 0.485604
1812.64, 0.485472
1813.28, 0.485341
1813.91, 0.485078
1814.55, 0.485209
1815.18, 0.485604
1815.82, 0.485078
1816.45, 0.485209
1817.09, 0.485472
1817.73, 0.485472
1818.36, 0.485472
1819.0, 0.485209
1819.64, 0.485209
1820.28, 0.484946
1820.92, 0.484420
1821.56, 0.484551
1822.2, 0.484814
1822.84, 0.484683
1823.48, 0.484156
1824.12, 0.484288
1824.76, 0.484156
1825.41, 0.484814
1826.05, 0.484683
1826.69, 0.483498
1827.34, 0.483498
1827.98, 0.484420
1828.63, 0.484814
1829.27, 0.484288
1829.92, 0.483498
1830.56, 0.483498
1831.21, 0.483498
1831.86, 0.483367
1832.5, 0.483367
1833.15, 0.483104
1833.8, 0.483104
1834.45, 0.483235
1835.1, 0.482972
1835.75, 0.482972
1836.4, 0.482446
1837.05, 0.482446
1837.7, 0.482446
1838.35, 0.481788
1839.01, 0.481656
1839.66, 0.481524
1840.31, 0.481261
1840.96, 0.481524
1841.62, 0.481261
1842.27, 0.480472
1842.93, 0.480472
1843.58, 0.480472
1844.24, 0.480208
1844.9, 0.480077
1845.55, 0.479945
1846.21, 0.480077
1846.87, 0.479682
1847.53, 0.479550
1848.18, 0.479287
1848.84, 0.478629
1849.5, 0.478761
1850.16, 0.478498
1850.82, 0.478234
1851.48, 0.478103
1852.14, 0.477445
1852.81, 0.477050
1853.47, 0.477182
1854.13, 0.476392
1854.8, 0.476129
1855.46, 0.476524
1856.12, 0.476655
1856.79, 0.476260
1857.45, 0.476129
1858.12, 0.476260
1858.79, 0.476392
1859.45, 0.476260
1860.12, 0.475471
1860.79, 0.474944
1861.46, 0.474813
1862.12, 0.474550
1862.79, 0.474286
1863.46, 0.474286
1864.13, 0.474418
1864.8, 0.474155
1865.48, 0.473892
1866.15, 0.473892
1866.82, 0.474155
1867.49, 0.473497
1868.16, 0.472576
1868.84, 0.472312
1869.51, 0.472444
1870.19, 0.472707
1870.86, 0.471786
1871.54, 0.471128
1872.21, 0.471918
1872.89, 0.471786
1873.56, 0.470865
1874.24, 0.470865
1874.92, 0.471128
1875.6, 0.470996
1876.28, 0.470602
1876.96, 0.469944
1877.64, 0.469417
1878.32, 0.469812
1879.0, 0.469154
1879.68, 0.469022
1880.36, 0.469417
1881.04, 0.469417
1881.73, 0.469549
1882.41, 0.469680
1883.09, 0.470075
1883.78, 0.470075
1884.46, 0.469549
1885.15, 0.470075
1885.83, 0.470602
1886.52, 0.470733
1887.21, 0.471128
1887.89, 0.471523
1888.58, 0.471391
1889.27, 0.471786
1889.96, 0.472049
1890.65, 0.471654
1891.34, 0.472312
1892.03, 0.472839
1892.72, 0.473102
1893.41, 0.473234
1894.1, 0.472970
1894.79, 0.473497
1895.49, 0.473892
1896.18, 0.473892
1896.87, 0.473892
1897.57, 0.474023
1898.26, 0.474418
1898.96, 0.474813
1899.65, 0.474155
1900.35, 0.473760
1901.05, 0.474023
1901.74, 0.474550
1902.44, 0.474550
1903.14, 0.474023
1903.84, 0.474286
1904.54, 0.474681
1905.24, 0.474286
1905.94, 0.474023
1906.64, 0.474023
1907.34, 0.473760
1908.04, 0.474023
1908.75, 0.473760
1909.45, 0.473497
1910.15, 0.473365
1910.86, 0.473234
1911.56, 0.473365
1912.27, 0.473234
1912.97, 0.473365
1913.68, 0.472970
1914.39, 0.472444
1915.09, 0.472576
1915.8, 0.472444
1916.51, 0.471786
1917.22, 0.471523
1917.93, 0.471391
1918.64, 0.471391
1919.35, 0.471128
1920.06, 0.470996
1920.77, 0.470470
1921.48, 0.470338
1922.19, 0.470207
1922.91, 0.470207
1923.62, 0.470470
1924.33, 0.470207
1925.05, 0.469812
1925.76, 0.469812
1926.48, 0.469286
1927.19, 0.469154
1927.91, 0.469154
1928.63, 0.468628
1929.35, 0.468233
1930.07, 0.468364
1930.78, 0.467970
1931.5, 0.468101
1932.22, 0.468101
1932.94, 0.467443
1933.66, 0.467180
1934.39, 0.467048
1935.11, 0.466785
1935.83, 0.466522
1936.55, 0.466127
1937.28, 0.465996
1938.0, 0.465996
1938.73, 0.465601
1939.45, 0.465206
1940.18, 0.464548
1940.9, 0.464153
1941.63, 0.463758
1942.36, 0.462969
1943.09, 0.463100
1943.81, 0.463232
1944.54, 0.462837
1945.27, 0.462442
1946.0, 0.462048
1946.73, 0.461521
1947.47, 0.460732
1948.2, 0.459679
1948.93, 0.459679
1949.66, 0.459810
1950.4, 0.459416
1951.13, 0.458889
1951.86, 0.458626
1952.6, 0.458626
1953.34, 0.457968
1954.07, 0.457442
1954.81, 0.457442
1955.55, 0.457442
1956.29, 0.457047
1957.02, 0.456257
1957.76, 0.455731
1958.5, 0.455204
1959.24, 0.454941
1959.98, 0.454546
1960.72, 0.454020
1961.47, 0.454020
1962.21, 0.454415
1962.95, 0.454152
1963.7, 0.453757
1964.44, 0.453625
1965.18, 0.453362
1965.93, 0.452704
1966.67, 0.452309
1967.42, 0.452309
1968.17, 0.452178
1968.92, 0.451914
1969.66, 0.451388
1970.41, 0.451125
1971.16, 0.450862
1971.91, 0.450598
1972.66, 0.450072
1973.41, 0.449151
1974.16, 0.449282
1974.92, 0.449282
1975.67, 0.448756
1976.42, 0.447966
1977.18, 0.447308
1977.93, 0.447440
1978.69, 0.447966
1979.44, 0.447703
1980.2, 0.447177
1980.95, 0.446914
1981.71, 0.446914
1982.47, 0.446387
1983.23, 0.445861
1983.99, 0.445466
1984.74, 0.445203
1985.51, 0.445203
1986.27, 0.445466
1987.03, 0.445071
1987.79, 0.444808
1988.55, 0.444545
1989.32, 0.444940
1990.08, 0.445466
1990.84, 0.445598
1991.61, 0.445203
1992.37, 0.444676
1993.14, 0.444940
1993.9, 0.444940
1994.67, 0.444150
1995.44, 0.443887
1996.21, 0.444545
1996.98, 0.445334
1997.75, 0.444940
1998.52, 0.444808
1999.29, 0.445203
2000.06, 0.445729
2000.83, 0.445729
2001.6, 0.445598
2002.38, 0.445334
2003.15, 0.445466
2003.93, 0.446256
2004.7, 0.446519
2005.48, 0.446124
2006.25, 0.446387
2007.03, 0.446782
2007.81, 0.447308
2008.58, 0.447440
2009.36, 0.447835
2010.14, 0.448098
2010.92, 0.447835
2011.7, 0.448230
2012.48, 0.449019
2013.26, 0.449677
2014.05, 0.450072
2014.83, 0.450204
2015.61, 0.450072
2016.4, 0.450335
2017.18, 0.450862
2017.97, 0.451256
2018.75, 0.451914
2019.54, 0.452572
2020.32, 0.453230
2021.11, 0.453362
2021.9, 0.453494
2022.69, 0.454020
2023.48, 0.454678
2024.27, 0.455204
2025.06, 0.455994
2025.85, 0.456784
2026.64, 0.457047
2027.44, 0.457573
2028.23, 0.458231
2029.02, 0.458626
2029.82, 0.459021
2030.61, 0.459416
2031.41, 0.459942
2032.2, 0.460468
2033.0, 0.460863
2033.8, 0.461521
2034.6, 0.462048
2035.4, 0.462574
2036.2, 0.463100
2037.0, 0.463364
2037.8, 0.463890
2038.6, 0.464548
2039.4, 0.465206
2040.2, 0.465601
2041.01, 0.466390
2041.81, 0.467048
2042.61, 0.467312
2043.42, 0.467706
2044.22, 0.467575
2045.03, 0.467575
2045.84, 0.468364
2046.65, 0.469286
2047.46, 0.470075
2048.26, 0.470338
2049.07, 0.470338
2049.88, 0.470733
2050.69, 0.470996
2051.51, 0.471523
2052.32, 0.471918
2053.13, 0.472181
2053.94, 0.472444
2054.76, 0.472970
2055.57, 0.472970
2056.39, 0.472970
2057.2, 0.473234
2058.02, 0.473497
2058.84, 0.473760
2059.66, 0.474155
2060.48, 0.474550
2061.29, 0.475076
2062.11, 0.475471
2062.94, 0.475602
2063.76, 0.475866
2064.58, 0.475866
2065.4, 0.475734
2066.22, 0.475734
2067.05, 0.476129
2067.87, 0.476260
2068.7, 0.476129
2069.52, 0.476392
2070.35, 0.476787
2071.18, 0.477313
2072.0, 0.477313
2072.83, 0.477050
2073.66, 0.477313
2074.49, 0.477576
2075.32, 0.477576
2076.15, 0.477313
2076.98, 0.477313
2077.82, 0.477313
2078.65, 0.477182
2079.48, 0.477445
2080.32, 0.477576
2081.15, 0.477576
2081.99, 0.477313
2082.83, 0.477182
2083.66, 0.477576
2084.5, 0.477971
2085.34, 0.477576
2086.18, 0.476918
2087.02, 0.476787
2087.86, 0.476918
2088.7, 0.476787
2089.54, 0.476524
2090.39, 0.475997
2091.23, 0.474944
2092.07, 0.474286
2092.92, 0.474023
2093.76, 0.473628
2094.61, 0.473102
2095.45, 0.472312
2096.3, 0.471654
2097.15, 0.471260
2098.0, 0.470865
2098.85, 0.470338
2099.7, 0.470075
2100.55, 0.470075
2101.4, 0.470207
2102.25, 0.469812
2103.1, 0.469417
2103.96, 0.469286
2104.81, 0.469022
2105.67, 0.468496
2106.52, 0.467970
2107.38, 0.467838
2108.24, 0.467838
2109.09, 0.467838
2109.95, 0.467838
2110.81, 0.467706
2111.67, 0.467312
2112.53, 0.467312
2113.39, 0.467443
2114.25, 0.467443
2115.12, 0.467312
2115.98, 0.467575
2116.84, 0.467970
2117.71, 0.468101
2118.58, 0.467970
2119.44, 0.468101
2120.31, 0.468101
2121.18, 0.467970
2122.04, 0.467970
2122.91, 0.468101
2123.78, 0.468364
2124.65, 0.468233
2125.52, 0.467706
2126.4, 0.467575
2127.27, 0.467443
2128.14, 0.467443
2129.02, 0.467706
2129.89, 0.467838
2130.77, 0.467970
2131.64, 0.468496
2132.52, 0.468496
2133.4, 0.468233
2134.27, 0.468233
2135.15, 0.468233
2136.03, 0.467970
2136.91, 0.467970
2137.79, 0.467970
2138.68, 0.468101
2139.56, 0.468101
2140.44, 0.467970
2141.33, 0.467706
2142.21, 0.467443
2143.1, 0.467443
2143.99, 0.467575
2144.87, 0.467443
2145.76, 0.467180
2146.65, 0.466785
2147.54, 0.466917
2148.43, 0.467312
2149.32, 0.467312
2150.21, 0.467048
2151.1, 0.467048
2151.99, 0.466785
2152.89, 0.466654
2153.78, 0.466654
2154.68, 0.466522
2155.57, 0.466390
2156.47, 0.466127
2157.37, 0.465996
2158.27, 0.465864
2159.16, 0.465732
2160.06, 0.465469
2160.96, 0.465338
2161.86, 0.465338
2162.77, 0.465074
2163.67, 0.465074
2164.57, 0.465206
2165.48, 0.465206
2166.38, 0.464943
2167.29, 0.464548
2168.2, 0.463890
2169.1, 0.463627
2170.01, 0.463232
2170.92, 0.462969
2171.83, 0.462706
2172.74, 0.462048
2173.65, 0.461390
2174.56, 0.461258
2175.47, 0.460600
2176.39, 0.460074
2177.3, 0.459416
2178.22, 0.459021
2179.13, 0.459021
2180.05, 0.458363
2180.96, 0.457178
2181.88, 0.456652
2182.8, 0.456389
2183.72, 0.455731
2184.64, 0.455073
2185.56, 0.454546
2186.48, 0.453757
2187.41, 0.453362
2188.33, 0.452836
2189.25, 0.452309
2190.18, 0.451651
2191.1, 0.451256
2192.03, 0.450335
2192.96, 0.448888
2193.89, 0.448098
2194.82, 0.447572
2195.74, 0.446782
2196.68, 0.446124
2197.61, 0.445334
2198.54, 0.444413
2199.47, 0.443887
2200.4, 0.443492
2201.34, 0.442571
2202.28, 0.441518
2203.21, 0.440465
2204.15, 0.439676
2205.08, 0.439018
2206.02, 0.438228
2206.96, 0.437044
2207.9, 0.435859
2208.84, 0.434938
2209.78, 0.434280
2210.73, 0.433359
2211.67, 0.431911
2212.61, 0.430595
2213.56, 0.429542
2214.5, 0.428490
2215.45, 0.427437
2216.4, 0.425858
2217.35, 0.424015
2218.3, 0.422699
2219.24, 0.421252
2220.2, 0.419672
2221.15, 0.417830
2222.1, 0.416251
2223.05, 0.414408
2224.0, 0.412303
2224.96, 0.410066
2225.91, 0.408092
2226.87, 0.405986
2227.83, 0.403486
2228.79, 0.400590
2229.74, 0.397300
2230.7, 0.393747
2231.66, 0.390589
2232.63, 0.387430
2233.59, 0.384404
2234.55, 0.381245
2235.51, 0.378218
2236.48, 0.375455
2237.44, 0.372428
2238.41, 0.370059
2239.38, 0.368217
2240.34, 0.366506
2241.31, 0.365058
2242.28, 0.364269
2243.25, 0.363348
2244.22, 0.362558
2245.19, 0.362163
2246.17, 0.362163
2247.14, 0.362426
2248.12, 0.362163
2249.09, 0.362163
2250.07, 0.362558
2251.04, 0.363084
2252.02, 0.363348
2253.0, 0.363742
2253.98, 0.364927
2254.96, 0.365453
2255.94, 0.365716
2256.92, 0.366111
2257.91, 0.366506
2258.89, 0.366769
2259.88, 0.367296
2260.86, 0.367690
2261.85, 0.367822
2262.83, 0.368085
2263.82, 0.368085
2264.81, 0.367954
2265.8, 0.368085
2266.79, 0.368217
2267.78, 0.368085
2268.78, 0.367690
2269.77, 0.367954
2270.76, 0.367954
2271.76, 0.367296
2272.75, 0.367032
2273.75, 0.366901
2274.75, 0.366638
2275.75, 0.365980
2276.75, 0.365190
2277.75, 0.364137
2278.75, 0.362690
2279.75, 0.360979
2280.75, 0.359136
2281.76, 0.356899
2282.76, 0.354399
2283.77, 0.351635
2284.77, 0.348740
2285.78, 0.345713
2286.79, 0.342950
2287.8, 0.340054
2288.81, 0.337554
2289.82, 0.335580
2290.83, 0.332948
2291.84, 0.330448
2292.86, 0.328737
2293.87, 0.327421
2294.89, 0.326236
2295.91, 0.325184
2296.92, 0.324131
2297.94, 0.323473
2298.96, 0.323210
2299.98, 0.323078
2301.0, 0.323210
2302.02, 0.323341
2303.04, 0.322815
2304.07, 0.322157
2305.09, 0.321630
2306.12, 0.321367
2307.15, 0.320709
2308.17, 0.319393
2309.2, 0.318077
2310.23, 0.316630
2311.26, 0.315314
2312.29, 0.313471
2313.32, 0.311366
2314.35, 0.309655
2315.39, 0.307944
2316.42, 0.306628
2317.46, 0.305180
2318.5, 0.304259
2319.53, 0.303601
2320.57, 0.303075
2321.61, 0.302680
2322.65, 0.302417
2323.69, 0.301627
2324.73, 0.301364
2325.78, 0.301101
2326.82, 0.300311
2327.86, 0.299916
2328.91, 0.300180
2329.96, 0.300706
2331.01, 0.301101
2332.05, 0.301759
2333.1, 0.302812
2334.15, 0.303864
2335.21, 0.305180
2336.26, 0.306102
2337.31, 0.307154
2338.36, 0.308339
2339.42, 0.309655
2340.48, 0.310971
2341.53, 0.312550
2342.59, 0.313998
2343.65, 0.315577
2344.71, 0.316761
2345.77, 0.318209
2346.83, 0.319920
2347.9, 0.321236
2348.96, 0.322420
2350.02, 0.323473
2351.09, 0.324394
2352.16, 0.325315
2353.23, 0.326500
2354.29, 0.327552
2355.36, 0.328079
2356.43, 0.329132
2357.51, 0.330711
2358.58, 0.331895
2359.65, 0.333211
2360.73, 0.334132
2361.8, 0.335185
2362.88, 0.336238
2363.96, 0.337422
2365.03, 0.338870
2366.11, 0.340318
2367.19, 0.341897
2368.27, 0.342555
2369.36, 0.343081
2370.44, 0.344002
2371.53, 0.344792
2372.61, 0.345713
2373.7, 0.346240
2374.78, 0.346634
2375.87, 0.346766
2376.96, 0.346634
2378.05, 0.346766
2379.14, 0.346634
2380.24, 0.346240
2381.33, 0.345976
2382.42, 0.345976
2383.52, 0.345713
2384.61, 0.345187
2385.71, 0.344792
2386.81, 0.344792
2387.91, 0.344529
2389.01, 0.344529
2390.11, 0.344660
2391.22, 0.344660
2392.32, 0.344660
2393.42, 0.345318
2394.53, 0.345976
2395.64, 0.346634
2396.74, 0.347424
2397.85, 0.348477
2398.96, 0.349661
2400.07, 0.350714
2401.18, 0.352030
2402.3, 0.353214
2403.41, 0.354925
2404.52, 0.356636
2405.64, 0.358215
2406.76, 0.359531
2407.88, 0.360716
2408.99, 0.361637
2410.11, 0.362690
2411.23, 0.363479
2412.36, 0.363479
2413.48, 0.363216
2414.6, 0.363479
2415.73, 0.363216
2416.85, 0.362426
2417.98, 0.361900
2419.11, 0.361374
2420.24, 0.360847
2421.37, 0.359926
2422.5, 0.358610
2423.64, 0.357426
2424.77, 0.356241
2425.9, 0.355320
2427.04, 0.354794
2428.18, 0.353872
2429.31, 0.352951
2430.45, 0.352162
2431.59, 0.351372
2432.73, 0.350846
2433.88, 0.350451
2435.02, 0.350188
2436.16, 0.349924
2437.31, 0.349530
2438.45, 0.349135
2439.6, 0.348872
2440.75, 0.348477
2441.9, 0.347950
2443.05, 0.347292
2444.2, 0.346503
2445.35, 0.345582
2446.51, 0.345055
2447.67, 0.344660
2448.82, 0.343344
2449.98, 0.342423
2451.14, 0.342028
2452.3, 0.341239
2453.46, 0.340318
2454.62, 0.339265
2455.78, 0.338344
2456.94, 0.337554
2458.11, 0.336633
2459.28, 0.335843
2460.44, 0.335054
2461.61, 0.334659
2462.78, 0.334132
2463.95, 0.333738
2465.12, 0.333606
2466.3, 0.333080
2467.47, 0.332816
2468.65, 0.332685
2469.82, 0.332948
2471.0, 0.332948
2472.18, 0.333080
2473.36, 0.333606
2474.54, 0.334001
2475.72, 0.334132
2476.9, 0.334396
2478.08, 0.334659
2479.27, 0.335054
2480.46, 0.335448
2481.64, 0.335580
2482.83, 0.335712
2484.02, 0.336106
2485.21, 0.336501
2486.4, 0.336370
2487.6, 0.336106
2488.79, 0.336370
2489.99, 0.336633
2491.18, 0.336370
2492.38, 0.336106
2493.58, 0.335975
2494.78, 0.336106
2495.98, 0.336106
2497.18, 0.335975
2498.39, 0.335843
2499.59, 0.335712
2500.8, 0.335843
2502.01, 0.335580
2503.21, 0.334922
2504.42, 0.335185
2505.63, 0.335317
2506.84, 0.335054
2508.06, 0.334922
2509.27, 0.334922
2510.49, 0.335054
2511.7, 0.334790
2512.92, 0.334659
2514.14, 0.334790
2515.36, 0.334659
2516.58, 0.334922
2517.8, 0.334790
2519.03, 0.334527
2520.25, 0.334396
2521.48, 0.334527
2522.7, 0.334790
2523.93, 0.335054
2525.16, 0.335054
2526.39, 0.335317
2527.62, 0.335317
2528.86, 0.335580
2530.09, 0.336106
2531.33, 0.336370
2532.56, 0.336501
2533.8, 0.336633
2535.04, 0.337159
2536.28, 0.337159
2537.52, 0.336764
2538.76, 0.336896
2540.01, 0.337159
2541.25, 0.337554
2542.5, 0.337291
2543.75, 0.336764
2544.99, 0.336764
2546.24, 0.337028
2547.49, 0.336764
2548.75, 0.336370
2550.0, 0.336370
2551.26, 0.336633
2552.51, 0.336370
2553.77, 0.335317
2555.03, 0.335448
2556.29, 0.335580
2557.55, 0.335712
2558.81, 0.336106
2560.08, 0.336633
2561.34, 0.335975
2562.61, 0.335580
2563.88, 0.335448
2565.14, 0.335054
2566.41, 0.335580
2567.68, 0.336896
2568.96, 0.337028
2570.23, 0.335054
2571.51, 0.335975
2572.78, 0.337291
2574.06, 0.335580
2575.34, 0.336764
2576.62, 0.337159
2577.9, 0.336501
2579.18, 0.338344
2580.47, 0.339396
2581.75, 0.339660
2583.04, 0.341370
2584.32, 0.339396
2585.61, 0.340712
2586.9, 0.342160
2588.2, 0.341765
2589.49, 0.342160
2590.78, 0.342818
2592.08, 0.344792
2593.37, 0.348345
2594.67, 0.345318
2595.97, 0.341107
2597.27, 0.343213
2598.57, 0.345318
2599.88, 0.346898
2601.18, 0.347687
2602.49, 0.347950
2603.79, 0.349398
2605.1, 0.349530
2606.41, 0.348214
2607.72, 0.349530
2609.03, 0.350319
2610.35, 0.350319
2611.66, 0.351109
2612.98, 0.351635
2614.3, 0.352162
2615.62, 0.354136
2616.94, 0.351767
2618.26, 0.351898
2619.58, 0.354267
2620.91, 0.351635
2622.23, 0.351635
2623.56, 0.353083
2624.89, 0.354530
2626.22, 0.354267
2627.55, 0.352162
2628.88, 0.354925
2630.21, 0.353741
2631.55, 0.351240
2632.89, 0.352820
2634.22, 0.352030
2635.56, 0.351635
2636.9, 0.351898
2638.25, 0.351504
2639.59, 0.351240
2640.93, 0.350977
2642.28, 0.350188
2643.63, 0.349924
2644.98, 0.349661
2646.33, 0.348214
2647.68, 0.347950
2649.03, 0.348214
2650.39, 0.348872
2651.74, 0.348608
2653.1, 0.347029
2654.46, 0.347161
2655.82, 0.346503
2657.18, 0.346108
2658.54, 0.346898
2659.9, 0.345845
2661.27, 0.345055
2662.64, 0.345450
2664.01, 0.346766
2665.38, 0.344660
2666.74, 0.341370
2668.12, 0.340844
2669.49, 0.343739
2670.87, 0.337291
2672.24, 0.335843
2673.62, 0.337028
2675.0, 0.336633
2676.38, 0.333343
2677.76, 0.330448
2679.15, 0.327816
2680.54, 0.324789
2681.92, 0.323868
2683.31, 0.320972
2684.7, 0.317946
2686.09, 0.315314
2687.48, 0.312024
2688.88, 0.309128
2690.27, 0.306102
2691.67, 0.303470
2693.07, 0.299390
2694.47, 0.292942
2695.87, 0.287020
2697.27, 0.279650
2698.67, 0.270306
2700.08, 0.261752
2701.49, 0.252804
2702.9, 0.241486
2704.31, 0.227142
2705.72, 0.209770
2707.13, 0.192531
2708.54, 0.176739
2709.96, 0.163710
2711.38, 0.152130
2712.8, 0.145023
2714.22, 0.141602
2715.64, 0.139233
2717.06, 0.138048
2718.49, 0.137785
2719.91, 0.137917
2721.34, 0.135943
2722.77, 0.137127
2724.2, 0.137522
2725.63, 0.136206
2727.07, 0.136074
2728.5, 0.136074
2729.94, 0.135811
2731.38, 0.135285
2732.82, 0.134758
2734.26, 0.133837
2735.7, 0.131863
2737.15, 0.131732
2738.59, 0.131995
2740.04, 0.130679
2741.49, 0.128836
2742.94, 0.128047
2744.39, 0.127784
2745.84, 0.126994
2747.3, 0.126204
2748.76, 0.125415
2750.21, 0.124362
2751.67, 0.123309
2753.14, 0.122783
2754.6, 0.121993
2756.06, 0.119230
2757.53, 0.118177
2759.0, 0.117782
2760.46, 0.117256
2761.94, 0.116334
2763.41, 0.114887
2764.88, 0.113834
2766.36, 0.113308
2767.83, 0.112650
2769.31, 0.111992
2770.79, 0.110939
2772.27, 0.109886
2773.76, 0.109096
2775.24, 0.108833
2776.73, 0.108307
2778.22, 0.107386
2779.71, 0.107122
2781.2, 0.106728
2782.69, 0.106070
2784.18, 0.105938
2785.68, 0.105938
2787.18, 0.105412
2788.68, 0.104622
2790.18, 0.104359
2791.68, 0.104096
2793.19, 0.103832
2794.69, 0.103569
2796.2, 0.103306
2797.71, 0.103043
2799.22, 0.103306
2800.73, 0.103701
2802.24, 0.104096
2803.76, 0.103832
2805.28, 0.103701
2806.8, 0.104096
2808.32, 0.104490
2809.84, 0.104622
2811.36, 0.104885
2812.89, 0.104754
2814.42, 0.105017
2815.94, 0.105280
2817.48, 0.105806
2819.01, 0.106596
2820.54, 0.107122
2822.08, 0.107649
2823.61, 0.108175
2825.15, 0.108307
2826.69, 0.108570
2828.23, 0.109228
2829.78, 0.109886
2831.32, 0.110412
2832.87, 0.110939
2834.42, 0.111334
2835.97, 0.111860
2837.52, 0.111992
2839.08, 0.112255
2840.63, 0.112913
2842.19, 0.113044
2843.75, 0.112781
2845.31, 0.112913
2846.87, 0.113439
2848.44, 0.113571
2850.0, 0.113176
2851.57, 0.112913
2853.14, 0.112650
2854.71, 0.112518
2856.28, 0.112255
2857.86, 0.111728
2859.43, 0.111334
2861.01, 0.110939
2862.59, 0.110281
2864.17, 0.109886
2865.76, 0.109491
2867.34, 0.109228
2868.93, 0.108965
2870.52, 0.108570
2872.11, 0.108044
2873.7, 0.107386
2875.29, 0.106728
2876.89, 0.106201
2878.49, 0.105675
2880.08, 0.105675
2881.69, 0.105280
2883.29, 0.104885
2884.89, 0.104359
2886.5, 0.104227
2888.11, 0.104359
2889.72, 0.103832
2891.33, 0.103306
2892.94, 0.103174
2894.56, 0.103043
2896.17, 0.102911
2897.79, 0.102516
2899.42, 0.102516
2901.04, 0.102648
2902.66, 0.102780
2904.29, 0.102648
2905.92, 0.102648
2907.55, 0.102780
2909.18, 0.102780
2910.81, 0.103043
2912.45, 0.103306
2914.08, 0.103438
2915.72, 0.103964
2917.36, 0.104359
2919.01, 0.104622
2920.65, 0.104622
2922.3, 0.105148
2923.94, 0.105806
2925.59, 0.106333
2927.25, 0.106728
2928.9, 0.107254
2930.56, 0.107780
2932.21, 0.108044
2933.87, 0.108044
2935.53, 0.108570
2937.2, 0.109228
2938.86, 0.110018
2940.53, 0.110807
2942.2, 0.111334
2943.87, 0.111597
2945.54, 0.112255
2947.22, 0.113176
2948.89, 0.113834
2950.57, 0.114097
2952.25, 0.114624
2953.93, 0.115545
2955.62, 0.116466
2957.3, 0.116992
2958.99, 0.117519
2960.68, 0.118045
2962.37, 0.118835
2964.07, 0.119888
2965.76, 0.120546
2967.46, 0.121204
2969.16, 0.121993
2970.86, 0.122651
2972.56, 0.123309
2974.27, 0.124230
2975.98, 0.125283
2977.69, 0.126073
2979.4, 0.126599
2981.11, 0.127257
2982.83, 0.128310
2984.54, 0.129363
2986.26, 0.130547
2987.98, 0.131863
2989.71, 0.132916
2991.43, 0.133706
2993.16, 0.134758
2994.89, 0.135943
2996.62, 0.136732
2998.35, 0.137654
3000.09, 0.138970
3001.83, 0.140022
3003.57, 0.140812
3005.31, 0.141733
3007.05, 0.143181
3008.79, 0.144365
3010.54, 0.145286
3012.29, 0.146076
3014.04, 0.147260
3015.8, 0.148445
3017.55, 0.149498
3019.31, 0.150550
3021.07, 0.151603
3022.83, 0.152393
3024.59, 0.153577
3026.36, 0.154762
3028.13, 0.155683
3029.9, 0.156604
3031.67, 0.157394
3033.44, 0.158315
3035.22, 0.159368
3037.0, 0.160420
3038.78, 0.161210
3040.56, 0.162263
3042.34, 0.163579
3044.13, 0.164632
3045.92, 0.165290
3047.71, 0.166211
3049.5, 0.167132
3051.3, 0.168185
3053.09, 0.169369
3054.89, 0.170422
3056.69, 0.171606
3058.5, 0.172922
3060.3, 0.173975
3062.11, 0.174765
3063.92, 0.175686
3065.73, 0.176739
3067.55, 0.178186
3069.36, 0.179239
3071.18, 0.180555
3073.0, 0.181740
3074.82, 0.182398
3076.65, 0.183187
3078.48, 0.184240
3080.31, 0.185424
3082.14, 0.186740
3083.97, 0.188188
3085.8, 0.189504
3087.64, 0.190557
3089.48, 0.191346
3091.33, 0.192268
3093.17, 0.193715
3095.02, 0.194900
3096.87, 0.196216
3098.72, 0.197400
3100.57, 0.198453
3102.43, 0.199637
3104.28, 0.200558
3106.14, 0.201348
3108.01, 0.202269
3109.87, 0.203454
3111.74, 0.204506
3113.61, 0.205428
3115.48, 0.206349
3117.35, 0.207270
3119.23, 0.208454
3121.1, 0.209244
3122.98, 0.209902
3124.87, 0.210823
3126.75, 0.211876
3128.64, 0.213060
3130.53, 0.213982
3132.42, 0.215034
3134.31, 0.215824
3136.21, 0.216482
3138.11, 0.217403
3140.01, 0.218324
3141.91, 0.219246
3143.82, 0.220430
3145.73, 0.221746
3147.64, 0.222536
3149.55, 0.223325
3151.46, 0.224115
3153.38, 0.225036
3155.3, 0.226220
3157.22, 0.227405
3159.14, 0.228194
3161.07, 0.228984
3163.0, 0.229905
3164.93, 0.230563
3166.86, 0.231353
3168.8, 0.232537
3170.74, 0.233590
3172.68, 0.234511
3174.62, 0.235564
3176.56, 0.236485
3178.51, 0.237406
3180.46, 0.238459
3182.42, 0.239380
3184.37, 0.240170
3186.33, 0.241091
3188.29, 0.241749
3190.25, 0.242276
3192.21, 0.243197
3194.18, 0.244250
3196.15, 0.245171
3198.12, 0.245697
3200.09, 0.246355
3202.07, 0.247145
3204.05, 0.247934
3206.03, 0.248592
3208.02, 0.249250
3210.0, 0.249908
3211.99, 0.250435
3213.98, 0.251093
3215.98, 0.252014
3217.97, 0.252672
3219.97, 0.253198
3221.97, 0.253593
3223.98, 0.253725
3225.98, 0.254383
3227.99, 0.255172
3230.0, 0.255436
3232.02, 0.255830
3234.03, 0.256357
3236.05, 0.256752
3238.07, 0.257410
3240.1, 0.257804
3242.12, 0.258068
3244.15, 0.258199
3246.18, 0.258331
3248.22, 0.258594
3250.25, 0.258594
3252.29, 0.258726
3254.33, 0.259120
3256.38, 0.259515
3258.43, 0.259910
3260.47, 0.259910
3262.53, 0.260042
3264.58, 0.260173
3266.64, 0.260436
3268.7, 0.260568
3270.76, 0.261094
3272.82, 0.261621
3274.89, 0.261884
3276.96, 0.262279
3279.04, 0.262805
3281.11, 0.263332
3283.19, 0.263858
3285.27, 0.264384
3287.35, 0.264911
3289.44, 0.265569
3291.53, 0.265964
3293.62, 0.266358
3295.71, 0.267148
3297.81, 0.267938
3299.91, 0.268201
3302.01, 0.268596
3304.11, 0.268727
3306.22, 0.269385
3308.33, 0.270175
3310.44, 0.270438
3312.56, 0.270438
3314.68, 0.270570
3316.8, 0.270833
3318.92, 0.271359
3321.05, 0.271886
3323.18, 0.271754
3325.31, 0.271754
3327.44, 0.272149
3329.58, 0.272412
3331.72, 0.272807
3333.86, 0.273333
3336.01, 0.273728
3338.16, 0.274254
3340.31, 0.274912
3342.46, 0.275439
3344.61, 0.275702
3346.77, 0.275834
3348.94, 0.275965
3351.1, 0.276228
3353.27, 0.276492
3355.44, 0.276755
3357.61, 0.277018
3359.79, 0.277018
3361.97, 0.277281
3364.15, 0.277018
3366.33, 0.276492
3368.52, 0.276097
3370.71, 0.275570
3372.9, 0.275439
3375.1, 0.275702
3377.3, 0.276228
3379.5, 0.276886
3381.71, 0.277413
3383.91, 0.278334
3386.12, 0.279518
3388.34, 0.280440
3390.55, 0.280966
3392.77, 0.281229
3394.99, 0.281492
3397.22, 0.281756
3399.45, 0.281492
3401.68, 0.281229
3403.91, 0.280703
3406.15, 0.280176
3408.39, 0.279782
3410.63, 0.279782
3412.87, 0.279913
3415.12, 0.280308
3417.37, 0.280571
3419.63, 0.281492
3421.88, 0.282545
3424.14, 0.283598
3426.41, 0.285309
3428.67, 0.286756
3430.94, 0.287809
3433.21, 0.289125
3435.49, 0.290573
3437.77, 0.291889
3440.05, 0.292810
3442.33, 0.293468
3444.62, 0.294389
3446.91, 0.295705
3449.2, 0.296626
3451.5, 0.297548
3453.8, 0.298732
3456.1, 0.299390
3458.41, 0.299785
3460.72, 0.300311
3463.03, 0.300574
3465.34, 0.301101
3467.66, 0.301890
3469.98, 0.302154
3472.31, 0.302548
3474.63, 0.302548
3476.96, 0.302548
3479.3, 0.303075
3481.64, 0.303733
3483.97, 0.304128
3486.32, 0.304128
3488.66, 0.304259
3491.01, 0.304654
3493.36, 0.304654
3495.72, 0.304259
3498.08, 0.304259
3500.44, 0.304786
3502.81, 0.305575
3505.18, 0.306628
3507.55, 0.307812
3509.92, 0.309392
3512.3, 0.311234
3514.68, 0.312945
3517.06, 0.314392
3519.45, 0.315445
3521.84, 0.316366
3524.24, 0.317551
3526.64, 0.318472
3529.04, 0.319130
3531.44, 0.319788
3533.85, 0.320446
3536.26, 0.321104
3538.67, 0.321367
3541.09, 0.321894
3543.51, 0.322683
3545.93, 0.323473
3548.36, 0.323868
3550.79, 0.324131
3553.22, 0.324394
3555.66, 0.324920
3558.1, 0.325578
3560.54, 0.325973
3562.99, 0.326236
3565.44, 0.326631
3567.9, 0.327158
3570.35, 0.327289
3572.81, 0.327816
3575.28, 0.328342
3577.75, 0.328737
3580.22, 0.329000
3582.69, 0.329395
3585.17, 0.329921
3587.65, 0.330316
3590.14, 0.330579
3592.62, 0.330842
3595.11, 0.331237
3597.61, 0.331500
3600.11, 0.331895
3602.61, 0.332158
3605.11, 0.332290
3607.62, 0.332553
3610.14, 0.333080
3612.65, 0.333080
3615.17, 0.333343
3617.69, 0.333738
3620.22, 0.334001
3622.75, 0.334264
3625.28, 0.334527
3627.82, 0.334527
3630.36, 0.334790
3632.9, 0.335185
3635.45, 0.335580
3638.0, 0.335712
3640.56, 0.336106
3643.12, 0.336106
3645.68, 0.336238
3648.24, 0.336370
3650.81, 0.336501
3653.39, 0.336896
3655.96, 0.337028
3658.54, 0.337159
3661.13, 0.337686
3663.71, 0.337949
3666.3, 0.338080
3668.9, 0.338212
3671.5, 0.338475
3674.1, 0.338738
3676.7, 0.338870
3679.31, 0.339002
3681.93, 0.339002
3684.54, 0.339265
3687.17, 0.339660
3689.79, 0.340054
3692.42, 0.340186
3695.05, 0.340449
3697.69, 0.340844
3700.32, 0.341239
3702.97, 0.341897
3705.61, 0.342160
3708.27, 0.342160
3710.92, 0.342555
3713.58, 0.343081
3716.24, 0.343081
3718.91, 0.343344
3721.58, 0.343476
3724.25, 0.343476
3726.93, 0.344002
3729.61, 0.344397
3732.29, 0.344529
3734.98, 0.344660
3737.67, 0.344792
3740.37, 0.344924
3743.07, 0.344924
3745.78, 0.345187
3748.49, 0.345845
3751.2, 0.345713
3753.91, 0.345318
3756.63, 0.345582
3759.36, 0.345976
3762.09, 0.346240
3764.82, 0.346371
3767.55, 0.346503
3770.29, 0.346766
3773.04, 0.346766
3775.78, 0.346503
3778.54, 0.346634
3781.29, 0.346766
3784.05, 0.346766
3786.82, 0.346634
3789.59, 0.346371
3792.36, 0.346371
3795.13, 0.346240
3797.92, 0.346371
3800.7, 0.346634
3803.49, 0.346634
3806.28, 0.347029
3809.08, 0.347161
3811.88, 0.347029
3814.68, 0.346898
3817.49, 0.346898
3820.31, 0.346898
3823.12, 0.347029
3825.94, 0.347292
3828.77, 0.347292
3831.6, 0.347161
3834.43, 0.347161
3837.27, 0.347161
3840.11, 0.347161
3842.96, 0.347029
3845.81, 0.347029
3848.67, 0.347029
3851.53, 0.346898
3854.39, 0.346634
3857.26, 0.346634
3860.13, 0.346766
3863.01, 0.346503
3865.89, 0.346240
3868.77, 0.345976
3871.66, 0.345976
3874.55, 0.346240
3877.45, 0.345976
3880.35, 0.345845
3883.26, 0.345582
3886.17, 0.345318
3889.09, 0.345055
3892.01, 0.344924
3894.93, 0.344660
3897.86, 0.344529
3900.79, 0.344266
3903.73, 0.344002
3906.67, 0.343739
3909.62, 0.343739
3912.57, 0.343213
3915.52, 0.342555
3918.48, 0.342292
3921.45, 0.342028
3924.42, 0.341897
3927.39, 0.342028
3930.37, 0.341634
3933.35, 0.341502
3936.34, 0.341502
3939.33, 0.341502
3942.32, 0.341634
3945.32, 0.341239
3948.33, 0.341634
3951.34, 0.341634
3954.35, 0.341107
3957.37, 0.340712
3960.39, 0.340976
3963.42, 0.341502
3966.45, 0.341765
3969.49, 0.341502
3972.53, 0.341370
3975.58, 0.341370
3978.63, 0.341370
3981.68, 0.341634
3984.75, 0.341765
3987.81, 0.342028
3990.88, 0.342028
3993.95, 0.341897
3997.03, 0.341765
4000.12, 0.341897
4003.21, 0.342160
4006.3, 0.342292
4009.4, 0.342555
4012.5, 0.342423
4015.61, 0.342160
4018.72, 0.342160
4021.84, 0.342292
4024.96, 0.342292
4028.09, 0.342028
4031.22, 0.342028
4034.36, 0.342160
4037.5, 0.341897
4040.65, 0.341765
4043.8, 0.341897
4046.96, 0.341502
4050.12, 0.341239
4053.29, 0.341107
4056.46, 0.341239
4059.64, 0.341107
4062.82, 0.340844
4066.0, 0.340712
4069.19, 0.340581
4072.39, 0.340186
4075.59, 0.339791
4078.8, 0.339528
4082.01, 0.339396
4085.23, 0.339396
4088.45, 0.339660
4091.68, 0.339660
4094.91, 0.339396
4098.15, 0.339528
4101.39, 0.339396
4104.63, 0.338607
4107.89, 0.338212
4111.14, 0.338475
4114.41, 0.338607
4117.67, 0.338344
4120.95, 0.337817
4124.23, 0.337422
4127.51, 0.337028
4130.8, 0.336501
4134.09, 0.336764
4137.39, 0.337159
4140.7, 0.337159
4144.01, 0.336896
4147.32, 0.336764
4150.64, 0.336633
4153.97, 0.336633
4157.3, 0.336633
4160.64, 0.336238
4163.98, 0.335712
4167.33, 0.335712
4170.68, 0.335843
4174.04, 0.335843
4177.4, 0.335843
4180.77, 0.335448
4184.14, 0.335185
4187.52, 0.335054
4190.91, 0.334790
4194.3, 0.334790
4197.69, 0.334790
4201.1, 0.334922
4204.5, 0.334659
4207.92, 0.334264
4211.34, 0.333738
4214.76, 0.333474
4218.19, 0.333080
4221.62, 0.332422
4225.06, 0.332027
4228.51, 0.331500
4231.96, 0.330842
4235.42, 0.330579
4238.88, 0.330711
4242.35, 0.330842
4245.83, 0.330974
4249.31, 0.331500
4252.79, 0.332158
4256.28, 0.332290
4259.78, 0.332290
4263.29, 0.331895
4266.79, 0.330842
4270.31, 0.330184
4273.83, 0.330053
4277.35, 0.330053
4280.89, 0.330053
4284.42, 0.330711
4287.97, 0.331237
4291.52, 0.330974
4295.07, 0.330974
4298.63, 0.330974
4302.2, 0.330711
4305.78, 0.331106
4309.35, 0.331632
4312.94, 0.331895
4316.53, 0.332027
4320.13, 0.332290
4323.73, 0.332422
4327.34, 0.332422
4330.96, 0.332422
4334.58, 0.332290
4338.21, 0.332816
4341.84, 0.332553
4345.48, 0.332422
4349.12, 0.332948
4352.77, 0.332685
4356.43, 0.332948
4360.1, 0.333211
4363.76, 0.333474
4367.44, 0.333738
4371.12, 0.333606
4374.81, 0.333606
4378.51, 0.333738
4382.21, 0.333343
4385.92, 0.333606
4389.63, 0.334264
4393.35, 0.333738
4397.08, 0.333343
4400.81, 0.333606
4404.55, 0.333343
4408.29, 0.333474
4412.04, 0.334001
4415.8, 0.334264
4419.57, 0.334790
4423.34, 0.334396
4427.12, 0.333738
4430.9, 0.333606
4434.69, 0.333080
4438.49, 0.333080
4442.29, 0.333343
4446.1, 0.333474
4449.92, 0.333738
4453.74, 0.333738
4457.57, 0.333343
4461.41, 0.333606
4465.25, 0.333738
4469.1, 0.333474
4472.95, 0.332553
4476.82, 0.331764
4480.69, 0.331237
4484.56, 0.331237
4488.44, 0.330974
4492.33, 0.330711
4496.23, 0.330448
4500.13, 0.330053
4504.04, 0.329526
4507.96, 0.329526
4511.88, 0.328605
4515.81, 0.328079
4519.75, 0.327552
4523.69, 0.327421
4527.65, 0.326894
4531.6, 0.326105
4535.57, 0.325447
4539.54, 0.325052
4543.52, 0.324262
4547.5, 0.322815
4551.5, 0.322025
4555.5, 0.321762
4559.5, 0.321367
4563.52, 0.320183
4567.54, 0.318077
4571.56, 0.316103
4575.6, 0.314656
4579.64, 0.314261
4583.69, 0.313208
4587.75, 0.311497
4591.81, 0.309918
4595.88, 0.308865
4599.96, 0.307812
4604.04, 0.307154
4608.14, 0.306365
4612.24, 0.305049
4616.34, 0.303996
4620.46, 0.303206
4624.58, 0.302154
4628.71, 0.300969
4632.84, 0.300311
4636.99, 0.299653
4641.14, 0.299390
4645.3, 0.297811
4649.47, 0.296100
4653.64, 0.295705
4657.82, 0.295837
4662.01, 0.295442
4666.21, 0.293994
4670.41, 0.292810
4674.62, 0.291494
4678.84, 0.291231
4683.07, 0.290573
4687.3, 0.289388
4691.54, 0.288467
4695.79, 0.288336
4700.05, 0.288072
4704.31, 0.287546
4708.59, 0.287809
4712.87, 0.287809
4717.15, 0.287020
4721.45, 0.286756
4725.76, 0.286625
4730.07, 0.285967
4734.39, 0.285440
4738.72, 0.285177
4743.05, 0.284782
4747.39, 0.283335
4751.75, 0.283466
4756.1, 0.284519
4760.47, 0.284651
4764.85, 0.285572
4769.23, 0.285835
4773.62, 0.283598
4778.02, 0.282545
4782.43, 0.283861
4786.85, 0.283993
4791.27, 0.284124
4795.7, 0.284651
4800.14, 0.285177
4804.59, 0.285572
4809.05, 0.284388
4813.51, 0.282940
4817.99, 0.282808
4822.47, 0.283203
4826.96, 0.283335
4831.46, 0.282940
4835.96, 0.283335
4840.48, 0.282940
4845.0, 0.281361
4849.54, 0.279782
4854.08, 0.279387
4858.63, 0.277808
4863.18, 0.277939
4867.75, 0.277544
4872.33, 0.276228
4876.91, 0.274912
4881.5, 0.274518
4886.1, 0.273465
4890.71, 0.272149
4895.33, 0.270964
4899.96, 0.270570
4904.59, 0.269912
4909.24, 0.268990
4913.89, 0.268464
4918.55, 0.266885
4923.22, 0.264648
4927.9, 0.263595
4932.59, 0.261226
4937.29, 0.260700
4942.0, 0.261621
4946.71, 0.261621
4951.44, 0.259910
4956.17, 0.257936
4960.91, 0.256357
4965.67, 0.255830
4970.43, 0.254909
4975.2, 0.255172
4979.98, 0.255436
4984.76, 0.254909
4989.56, 0.254120
4994.37, 0.253988
4999.18, 0.253988
5004.01, 0.253856
5008.84, 0.253593
5013.69, 0.252804
5018.54, 0.251224
5023.4, 0.250961
5028.28, 0.251619
5033.16, 0.251093
5038.05, 0.249514
5042.95, 0.249645
5047.86, 0.251224
5052.78, 0.252409
5057.71, 0.252277
5062.65, 0.252146
5067.6, 0.250961
5072.56, 0.250961
5077.53, 0.251093
5082.5, 0.250698
5087.49, 0.250435
5092.49, 0.250303
5097.5, 0.250172
5102.51, 0.250566
5107.54, 0.249645
5112.58, 0.250698
5117.62, 0.251356
5122.68, 0.250040
5127.75, 0.250435
5132.82, 0.251224
5137.91, 0.251356
5143.01, 0.251224
5148.12, 0.251751
5153.23, 0.251224
5158.36, 0.250566
5163.5, 0.250961
5168.65, 0.251356
5173.81, 0.251488
5178.98, 0.251093
5184.15, 0.250961
5189.34, 0.251751
5194.54, 0.251751
5199.75, 0.251356
5204.98, 0.251356
5210.21, 0.251093
5215.45, 0.250566
5220.7, 0.250698
5225.96, 0.251488
5231.23, 0.250961
5236.52, 0.251093
5241.81, 0.250435
5247.12, 0.249777
5252.44, 0.249908
5257.76, 0.249250
5263.1, 0.247934
5268.45, 0.248198
5273.81, 0.248066
5279.18, 0.247934
5284.56, 0.247803
5289.95, 0.247013
5295.36, 0.245960
5300.77, 0.246092
