Database of Origin, USGS Spectral Database
Sample Description, See USGS database for additional info
Date Added,2016-08-03 21:25:46.493558

Data ID,USGS_col02          
Sample ID, colemanite_gds143.6030
Mineral Name, colemanite
Material Class,Borate

Wavelength
1499.61, 0.229339
1500.04, 0.229389
1500.48, 0.228785
1500.91, 0.228534
1501.35, 0.228534
1501.78, 0.228031
1502.22, 0.227880
1502.65, 0.227628
1503.09, 0.226923
1503.53, 0.226722
1503.96, 0.226974
1504.4, 0.226772
1504.83, 0.226319
1505.27, 0.226068
1505.71, 0.225162
1506.15, 0.224608
1506.58, 0.224810
1507.02, 0.224910
1507.46, 0.224860
1507.9, 0.224558
1508.34, 0.223853
1508.78, 0.223350
1509.21, 0.223753
1509.66, 0.224105
1510.09, 0.223904
1510.53, 0.223904
1510.97, 0.223954
1511.42, 0.223300
1511.86, 0.222595
1512.3, 0.222193
1512.74, 0.222193
1513.18, 0.222243
1513.62, 0.221589
1514.06, 0.221639
1514.51, 0.221840
1514.95, 0.221438
1515.39, 0.220985
1515.83, 0.221085
1516.28, 0.220834
1516.72, 0.220331
1517.16, 0.220934
1517.61, 0.221136
1518.05, 0.220632
1518.5, 0.220129
1518.94, 0.220029
1519.39, 0.219978
1519.83, 0.219827
1520.28, 0.219777
1520.73, 0.219676
1521.17, 0.219525
1521.62, 0.219777
1522.07, 0.219727
1522.51, 0.219425
1522.96, 0.219274
1523.41, 0.219022
1523.85, 0.218720
1524.3, 0.218770
1524.75, 0.218670
1525.2, 0.218519
1525.65, 0.218418
1526.1, 0.218720
1526.55, 0.218619
1527.0, 0.218166
1527.45, 0.218066
1527.9, 0.217714
1528.35, 0.217613
1528.8, 0.217613
1529.25, 0.217965
1529.7, 0.218066
1530.15, 0.217462
1530.6, 0.217512
1531.05, 0.217714
1531.51, 0.217613
1531.96, 0.217210
1532.41, 0.216858
1532.87, 0.217110
1533.32, 0.217563
1533.77, 0.217261
1534.23, 0.216707
1534.68, 0.216707
1535.14, 0.216606
1535.59, 0.216204
1536.05, 0.216204
1536.5, 0.216455
1536.96, 0.216707
1537.41, 0.216556
1537.87, 0.216405
1538.32, 0.216053
1538.78, 0.216002
1539.24, 0.216053
1539.7, 0.216103
1540.15, 0.216053
1540.61, 0.216053
1541.07, 0.215902
1541.53, 0.215700
1541.98, 0.215549
1542.44, 0.215650
1542.9, 0.215952
1543.36, 0.215751
1543.82, 0.215650
1544.28, 0.215952
1544.74, 0.216153
1545.2, 0.216304
1545.66, 0.216103
1546.12, 0.216254
1546.59, 0.216304
1547.05, 0.216103
1547.51, 0.215751
1547.97, 0.215851
1548.43, 0.216153
1548.9, 0.216405
1549.36, 0.216808
1549.82, 0.216657
1550.29, 0.216556
1550.75, 0.216959
1551.21, 0.216908
1551.68, 0.216858
1552.14, 0.217059
1552.61, 0.217160
1553.07, 0.217361
1553.54, 0.217915
1554.0, 0.217563
1554.47, 0.217462
1554.93, 0.217764
1555.4, 0.217915
1555.87, 0.217965
1556.34, 0.218066
1556.8, 0.218015
1557.27, 0.218418
1557.74, 0.218569
1558.21, 0.218720
1558.68, 0.218821
1559.14, 0.218921
1559.61, 0.219123
1560.08, 0.219324
1560.55, 0.219425
1561.02, 0.219576
1561.49, 0.219928
1561.96, 0.219928
1562.43, 0.220029
1562.9, 0.220582
1563.38, 0.220783
1563.85, 0.220884
1564.32, 0.220934
1564.79, 0.221236
1565.26, 0.221337
1565.74, 0.221538
1566.21, 0.221891
1566.68, 0.222243
1567.16, 0.222092
1567.63, 0.221941
1568.1, 0.222193
1568.58, 0.222193
1569.05, 0.222646
1569.53, 0.222998
1570.0, 0.223199
1570.48, 0.223551
1570.96, 0.223702
1571.43, 0.223904
1571.91, 0.224357
1572.39, 0.224759
1572.86, 0.224457
1573.34, 0.224558
1573.82, 0.225414
1574.3, 0.225866
1574.77, 0.225967
1575.25, 0.226068
1575.73, 0.226319
1576.21, 0.226420
1576.69, 0.226521
1577.17, 0.226873
1577.65, 0.227175
1578.13, 0.227326
1578.61, 0.227326
1579.09, 0.227376
1579.57, 0.227477
1580.05, 0.227527
1580.54, 0.227880
1581.02, 0.227930
1581.5, 0.227930
1581.98, 0.228031
1582.47, 0.228232
1582.95, 0.228785
1583.43, 0.228886
1583.92, 0.229037
1584.4, 0.229389
1584.88, 0.229339
1585.37, 0.229138
1585.85, 0.229641
1586.34, 0.229943
1586.82, 0.229893
1587.31, 0.229993
1587.8, 0.230195
1588.28, 0.230195
1588.77, 0.229993
1589.26, 0.230094
1589.74, 0.230195
1590.23, 0.230245
1590.72, 0.230144
1591.21, 0.230195
1591.7, 0.230446
1592.19, 0.230647
1592.67, 0.230798
1593.16, 0.230949
1593.65, 0.231151
1594.14, 0.231000
1594.63, 0.230949
1595.12, 0.231100
1595.61, 0.230949
1596.11, 0.231000
1596.6, 0.231050
1597.09, 0.231000
1597.58, 0.231151
1598.08, 0.231100
1598.57, 0.230949
1599.06, 0.231050
1599.55, 0.231302
1600.05, 0.231100
1600.54, 0.231100
1601.04, 0.231251
1601.53, 0.231453
1602.03, 0.231402
1602.52, 0.231050
1603.02, 0.230798
1603.51, 0.230647
1604.01, 0.231151
1604.5, 0.231553
1605.0, 0.231352
1605.5, 0.231251
1606.0, 0.231201
1606.49, 0.231050
1606.99, 0.230849
1607.49, 0.230547
1607.99, 0.230547
1608.49, 0.230698
1608.99, 0.230647
1609.49, 0.230647
1609.99, 0.230647
1610.49, 0.230748
1610.99, 0.230698
1611.49, 0.230597
1611.99, 0.230497
1612.49, 0.230295
1612.99, 0.230245
1613.49, 0.230094
1614.0, 0.229943
1614.5, 0.229842
1615.0, 0.230044
1615.51, 0.229842
1616.01, 0.229641
1616.51, 0.229641
1617.02, 0.229540
1617.52, 0.229440
1618.03, 0.229540
1618.53, 0.229641
1619.04, 0.229289
1619.54, 0.229138
1620.05, 0.229188
1620.55, 0.229138
1621.06, 0.228936
1621.57, 0.228785
1622.08, 0.228634
1622.58, 0.228383
1623.09, 0.228332
1623.6, 0.228081
1624.11, 0.227980
1624.62, 0.228332
1625.13, 0.228332
1625.64, 0.228232
1626.15, 0.228081
1626.66, 0.227980
1627.17, 0.227980
1627.68, 0.227880
1628.19, 0.227829
1628.7, 0.227729
1629.21, 0.227578
1629.72, 0.227427
1630.24, 0.227376
1630.75, 0.227074
1631.26, 0.227074
1631.78, 0.227074
1632.29, 0.226873
1632.8, 0.226823
1633.32, 0.226823
1633.83, 0.226923
1634.35, 0.226923
1634.86, 0.226873
1635.38, 0.226521
1635.9, 0.226420
1636.41, 0.226168
1636.93, 0.226269
1637.45, 0.226521
1637.96, 0.226319
1638.48, 0.226269
1639.0, 0.226521
1639.52, 0.226370
1640.04, 0.225967
1640.56, 0.225715
1641.08, 0.225766
1641.59, 0.225967
1642.11, 0.226017
1642.63, 0.225967
1643.16, 0.225866
1643.68, 0.225766
1644.2, 0.225615
1644.72, 0.225464
1645.24, 0.225363
1645.76, 0.225464
1646.29, 0.225615
1646.81, 0.225866
1647.33, 0.225816
1647.86, 0.225665
1648.38, 0.225564
1648.9, 0.225514
1649.43, 0.225363
1649.95, 0.225212
1650.48, 0.225162
1651.0, 0.225313
1651.53, 0.225363
1652.06, 0.225363
1652.58, 0.225363
1653.11, 0.225464
1653.64, 0.225665
1654.17, 0.225866
1654.69, 0.225967
1655.22, 0.225967
1655.75, 0.225967
1656.28, 0.225917
1656.81, 0.225866
1657.34, 0.225715
1657.87, 0.225564
1658.4, 0.225715
1658.93, 0.225917
1659.46, 0.225967
1659.99, 0.226068
1660.52, 0.226118
1661.05, 0.226319
1661.59, 0.226319
1662.12, 0.226219
1662.65, 0.226319
1663.19, 0.226521
1663.72, 0.226621
1664.26, 0.226672
1664.79, 0.226722
1665.32, 0.226772
1665.86, 0.226923
1666.39, 0.227225
1666.93, 0.227125
1667.47, 0.227175
1668.0, 0.227326
1668.54, 0.227427
1669.08, 0.227678
1669.61, 0.227829
1670.15, 0.227829
1670.69, 0.227779
1671.23, 0.227930
1671.77, 0.228081
1672.31, 0.227980
1672.85, 0.228081
1673.39, 0.228483
1673.93, 0.228735
1674.47, 0.228634
1675.01, 0.228685
1675.55, 0.228936
1676.09, 0.229037
1676.64, 0.229138
1677.18, 0.229339
1677.72, 0.229339
1678.26, 0.229339
1678.81, 0.229641
1679.35, 0.229842
1679.89, 0.229691
1680.44, 0.229742
1680.98, 0.230195
1681.53, 0.230497
1682.07, 0.230547
1682.62, 0.230547
1683.17, 0.230647
1683.71, 0.230798
1684.26, 0.230899
1684.81, 0.230949
1685.36, 0.231302
1685.9, 0.231654
1686.45, 0.231755
1687.0, 0.231805
1687.55, 0.231704
1688.1, 0.231604
1688.65, 0.231604
1689.2, 0.231906
1689.75, 0.232208
1690.3, 0.232308
1690.85, 0.232359
1691.41, 0.232560
1691.96, 0.232661
1692.51, 0.232661
1693.06, 0.233013
1693.61, 0.233264
1694.17, 0.233315
1694.72, 0.233415
1695.28, 0.233516
1695.83, 0.233768
1696.39, 0.234070
1696.94, 0.234271
1697.5, 0.234573
1698.05, 0.234472
1698.61, 0.234472
1699.17, 0.234623
1699.72, 0.234925
1700.28, 0.235328
1700.84, 0.235479
1701.4, 0.235630
1701.95, 0.235730
1702.51, 0.235881
1703.07, 0.236032
1703.63, 0.236334
1704.19, 0.236536
1704.75, 0.236787
1705.31, 0.236838
1705.88, 0.237039
1706.44, 0.237291
1707.0, 0.237442
1707.56, 0.237593
1708.12, 0.237744
1708.69, 0.238046
1709.25, 0.238146
1709.81, 0.238197
1710.38, 0.238448
1710.94, 0.238549
1711.51, 0.238750
1712.07, 0.238951
1712.64, 0.239052
1713.2, 0.239052
1713.77, 0.239253
1714.34, 0.239505
1714.9, 0.239606
1715.47, 0.239606
1716.04, 0.240008
1716.61, 0.240310
1717.18, 0.240210
1717.74, 0.240210
1718.31, 0.240461
1718.88, 0.240562
1719.45, 0.240612
1720.02, 0.240763
1720.59, 0.240964
1721.17, 0.241065
1721.74, 0.241166
1722.31, 0.241216
1722.88, 0.241317
1723.45, 0.241468
1724.03, 0.241619
1724.6, 0.241669
1725.18, 0.241719
1725.75, 0.242021
1726.33, 0.242072
1726.9, 0.242072
1727.48, 0.242122
1728.05, 0.242273
1728.63, 0.242323
1729.2, 0.242424
1729.78, 0.242625
1730.36, 0.242726
1730.94, 0.242776
1731.51, 0.242827
1732.09, 0.242877
1732.67, 0.242927
1733.25, 0.243129
1733.83, 0.243229
1734.41, 0.243078
1734.99, 0.243129
1735.57, 0.243280
1736.15, 0.243481
1736.73, 0.243481
1737.32, 0.243481
1737.9, 0.243581
1738.48, 0.243632
1739.07, 0.243481
1739.65, 0.243280
1740.23, 0.243481
1740.82, 0.243883
1741.4, 0.244135
1741.99, 0.243883
1742.57, 0.243632
1743.16, 0.243732
1743.74, 0.243984
1744.33, 0.244135
1744.92, 0.244034
1745.51, 0.243883
1746.09, 0.243783
1746.68, 0.243783
1747.27, 0.243984
1747.86, 0.243934
1748.45, 0.243833
1749.04, 0.243883
1749.63, 0.244135
1750.22, 0.244185
1750.81, 0.244135
1751.4, 0.243934
1751.99, 0.243732
1752.59, 0.243934
1753.18, 0.243984
1753.77, 0.243934
1754.37, 0.244085
1754.96, 0.244034
1755.56, 0.243984
1756.15, 0.243934
1756.74, 0.244135
1757.34, 0.244085
1757.94, 0.244135
1758.53, 0.244336
1759.13, 0.244185
1759.73, 0.244135
1760.32, 0.244387
1760.92, 0.244487
1761.52, 0.244185
1762.12, 0.243833
1762.72, 0.243984
1763.32, 0.244185
1763.92, 0.244236
1764.52, 0.244085
1765.12, 0.244185
1765.72, 0.244387
1766.32, 0.244387
1766.92, 0.244336
1767.53, 0.244286
1768.13, 0.244185
1768.73, 0.244236
1769.34, 0.244336
1769.94, 0.244437
1770.55, 0.244588
1771.15, 0.244538
1771.76, 0.244588
1772.36, 0.244638
1772.97, 0.244588
1773.57, 0.244538
1774.18, 0.244538
1774.79, 0.244588
1775.4, 0.244638
1776.0, 0.244638
1776.61, 0.244638
1777.22, 0.244739
1777.83, 0.244991
1778.44, 0.245192
1779.05, 0.245343
1779.66, 0.245293
1780.27, 0.245293
1780.88, 0.245293
1781.5, 0.245242
1782.11, 0.245343
1782.72, 0.245242
1783.33, 0.245192
1783.95, 0.245444
1784.56, 0.245746
1785.18, 0.245796
1785.79, 0.245695
1786.41, 0.245695
1787.02, 0.245645
1787.64, 0.245746
1788.26, 0.245796
1788.87, 0.245846
1789.49, 0.245746
1790.11, 0.245645
1790.73, 0.245796
1791.35, 0.245897
1791.96, 0.245947
1792.58, 0.245947
1793.21, 0.245846
1793.83, 0.245746
1794.45, 0.245997
1795.07, 0.246249
1795.69, 0.246299
1796.31, 0.246198
1796.93, 0.246047
1797.56, 0.245997
1798.18, 0.246047
1798.8, 0.246299
1799.43, 0.246500
1800.05, 0.246450
1800.68, 0.246249
1801.3, 0.246148
1801.93, 0.246299
1802.56, 0.246450
1803.18, 0.246551
1803.81, 0.246500
1804.44, 0.246400
1805.07, 0.246349
1805.7, 0.246349
1806.33, 0.246198
1806.95, 0.246299
1807.58, 0.246500
1808.22, 0.246601
1808.85, 0.246651
1809.48, 0.246651
1810.11, 0.246601
1810.74, 0.246500
1811.38, 0.246349
1812.01, 0.246651
1812.64, 0.246853
1813.28, 0.246903
1813.91, 0.246853
1814.55, 0.246903
1815.18, 0.246752
1815.82, 0.246702
1816.45, 0.246802
1817.09, 0.246953
1817.73, 0.247104
1818.36, 0.247004
1819.0, 0.247004
1819.64, 0.246903
1820.28, 0.246903
1820.92, 0.246853
1821.56, 0.246702
1822.2, 0.246903
1822.84, 0.247255
1823.48, 0.247457
1824.12, 0.247557
1824.76, 0.247708
1825.41, 0.247507
1826.05, 0.247054
1826.69, 0.247306
1827.34, 0.247759
1827.98, 0.247658
1828.63, 0.247608
1829.27, 0.247859
1829.92, 0.247960
1830.56, 0.247708
1831.21, 0.247507
1831.86, 0.247809
1832.5, 0.247960
1833.15, 0.248061
1833.8, 0.248262
1834.45, 0.248212
1835.1, 0.248161
1835.75, 0.247910
1836.4, 0.247809
1837.05, 0.248111
1837.7, 0.248262
1838.35, 0.248513
1839.01, 0.248463
1839.66, 0.248262
1840.31, 0.248312
1840.96, 0.248312
1841.62, 0.248010
1842.27, 0.248161
1842.93, 0.248614
1843.58, 0.248916
1844.24, 0.248916
1844.9, 0.248966
1845.55, 0.248866
1846.21, 0.248614
1846.87, 0.248111
1847.53, 0.248161
1848.18, 0.248463
1848.84, 0.248815
1849.5, 0.249067
1850.16, 0.249168
1850.82, 0.249218
1851.48, 0.249319
1852.14, 0.248966
1852.81, 0.248463
1853.47, 0.248010
1854.13, 0.248111
1854.8, 0.248715
1855.46, 0.248765
1856.12, 0.248413
1856.79, 0.248161
1857.45, 0.248312
1858.12, 0.248212
1858.79, 0.247910
1859.45, 0.247507
1860.12, 0.247708
1860.79, 0.247859
1861.46, 0.247910
1862.12, 0.247859
1862.79, 0.247759
1863.46, 0.247457
1864.13, 0.247406
1864.8, 0.247557
1865.48, 0.247557
1866.15, 0.247356
1866.82, 0.246903
1867.49, 0.246249
1868.16, 0.245997
1868.84, 0.246198
1869.51, 0.246098
1870.19, 0.245393
1870.86, 0.244840
1871.54, 0.245091
1872.21, 0.244991
1872.89, 0.244286
1873.56, 0.244185
1874.24, 0.244538
1874.92, 0.244437
1875.6, 0.244236
1876.28, 0.243833
1876.96, 0.243280
1877.64, 0.243280
1878.32, 0.243280
1879.0, 0.242927
1879.68, 0.242676
1880.36, 0.242474
1881.04, 0.242223
1881.73, 0.242122
1882.41, 0.241770
1883.09, 0.241367
1883.78, 0.240713
1884.46, 0.240461
1885.15, 0.240310
1885.83, 0.239908
1886.52, 0.239505
1887.21, 0.239253
1887.89, 0.239153
1888.58, 0.238750
1889.27, 0.238096
1889.96, 0.237391
1890.65, 0.237140
1891.34, 0.236787
1892.03, 0.236284
1892.72, 0.236083
1893.41, 0.235680
1894.1, 0.235328
1894.79, 0.234925
1895.49, 0.234422
1896.18, 0.233919
1896.87, 0.233415
1897.57, 0.232963
1898.26, 0.232359
1898.96, 0.231553
1899.65, 0.230949
1900.35, 0.230798
1901.05, 0.230547
1901.74, 0.230044
1902.44, 0.229188
1903.14, 0.228584
1903.84, 0.228383
1904.54, 0.227729
1905.24, 0.226823
1905.94, 0.226168
1906.64, 0.225715
1907.34, 0.225564
1908.04, 0.225011
1908.75, 0.224206
1909.45, 0.223551
1910.15, 0.223098
1910.86, 0.222344
1911.56, 0.221589
1912.27, 0.221035
1912.97, 0.220280
1913.68, 0.219425
1914.39, 0.218821
1915.09, 0.218267
1915.8, 0.217563
1916.51, 0.216808
1917.22, 0.216204
1917.93, 0.215700
1918.64, 0.214895
1919.35, 0.213889
1920.06, 0.212832
1920.77, 0.212027
1921.48, 0.211473
1922.19, 0.210768
1922.91, 0.209913
1923.62, 0.209007
1924.33, 0.208302
1925.05, 0.207698
1925.76, 0.206843
1926.48, 0.205887
1927.19, 0.204981
1927.91, 0.204276
1928.63, 0.203471
1929.35, 0.202465
1930.07, 0.201508
1930.78, 0.200552
1931.5, 0.199797
1932.22, 0.199042
1932.94, 0.198237
1933.66, 0.197482
1934.39, 0.196576
1935.11, 0.195620
1935.83, 0.194865
1936.55, 0.193959
1937.28, 0.193154
1938.0, 0.192299
1938.73, 0.191443
1939.45, 0.190537
1940.18, 0.189832
1940.9, 0.189078
1941.63, 0.188323
1942.36, 0.187517
1943.09, 0.186813
1943.81, 0.186310
1944.54, 0.185655
1945.27, 0.185102
1946.0, 0.184448
1946.73, 0.183743
1947.47, 0.183340
1948.2, 0.182887
1948.93, 0.182334
1949.66, 0.181982
1950.4, 0.181680
1951.13, 0.181428
1951.86, 0.181327
1952.6, 0.181025
1953.34, 0.180623
1954.07, 0.180522
1954.81, 0.180270
1955.55, 0.179968
1956.29, 0.179817
1957.02, 0.179767
1957.76, 0.179817
1958.5, 0.179868
1959.24, 0.179918
1959.98, 0.179767
1960.72, 0.179767
1961.47, 0.179817
1962.21, 0.180019
1962.95, 0.180170
1963.7, 0.180321
1964.44, 0.180421
1965.18, 0.180623
1965.93, 0.180723
1966.67, 0.180723
1967.42, 0.180925
1968.17, 0.181126
1968.92, 0.181277
1969.66, 0.181478
1970.41, 0.181529
1971.16, 0.181680
1971.91, 0.181831
1972.66, 0.182032
1973.41, 0.182283
1974.16, 0.182485
1974.92, 0.182686
1975.67, 0.182988
1976.42, 0.183290
1977.18, 0.183542
1977.93, 0.183542
1978.69, 0.183642
1979.44, 0.183995
1980.2, 0.184045
1980.95, 0.184196
1981.71, 0.184548
1982.47, 0.184699
1983.23, 0.184800
1983.99, 0.184951
1984.74, 0.185051
1985.51, 0.185253
1986.27, 0.185353
1987.03, 0.185353
1987.79, 0.185504
1988.55, 0.185655
1989.32, 0.186008
1990.08, 0.186159
1990.84, 0.186209
1991.61, 0.186310
1992.37, 0.186612
1993.14, 0.186863
1993.9, 0.186914
1994.67, 0.187165
1995.44, 0.187417
1996.21, 0.187467
1996.98, 0.187467
1997.75, 0.187719
1998.52, 0.187970
1999.29, 0.188071
2000.06, 0.188272
2000.83, 0.188373
2001.6, 0.188474
2002.38, 0.188776
2003.15, 0.189078
2003.93, 0.189178
2004.7, 0.189128
2005.48, 0.189329
2006.25, 0.189631
2007.03, 0.189782
2007.81, 0.189933
2008.58, 0.190134
2009.36, 0.190436
2010.14, 0.190789
2010.92, 0.191040
2011.7, 0.191292
2012.48, 0.191493
2013.26, 0.191644
2014.05, 0.191846
2014.83, 0.191946
2015.61, 0.192097
2016.4, 0.192248
2017.18, 0.192349
2017.97, 0.192550
2018.75, 0.192802
2019.54, 0.192953
2020.32, 0.193003
2021.11, 0.193053
2021.9, 0.193003
2022.69, 0.193154
2023.48, 0.193456
2024.27, 0.193456
2025.06, 0.193506
2025.85, 0.193557
2026.64, 0.193456
2027.44, 0.193557
2028.23, 0.193808
2029.02, 0.193959
2029.82, 0.193959
2030.61, 0.194060
2031.41, 0.194211
2032.2, 0.194261
2033.0, 0.194463
2033.8, 0.194614
2034.6, 0.194765
2035.4, 0.195016
2036.2, 0.195016
2037.0, 0.195016
2037.8, 0.195167
2038.6, 0.195368
2039.4, 0.195620
2040.2, 0.195771
2041.01, 0.195922
2041.81, 0.195922
2042.61, 0.195922
2043.42, 0.196073
2044.22, 0.196224
2045.03, 0.196375
2045.84, 0.196476
2046.65, 0.196425
2047.46, 0.196425
2048.26, 0.196425
2049.07, 0.196325
2049.88, 0.196325
2050.69, 0.196325
2051.51, 0.196375
2052.32, 0.196476
2053.13, 0.196425
2053.94, 0.196274
2054.76, 0.196325
2055.57, 0.196325
2056.39, 0.196174
2057.2, 0.196023
2058.02, 0.195972
2058.84, 0.195922
2059.66, 0.195972
2060.48, 0.196123
2061.29, 0.195922
2062.11, 0.195620
2062.94, 0.195519
2063.76, 0.195419
2064.58, 0.195268
2065.4, 0.195167
2066.22, 0.195217
2067.05, 0.195268
2067.87, 0.195167
2068.7, 0.194915
2069.52, 0.194664
2070.35, 0.194563
2071.18, 0.194412
2072.0, 0.194312
2072.83, 0.194110
2073.66, 0.193657
2074.49, 0.193456
2075.32, 0.193154
2076.15, 0.192751
2076.98, 0.192349
2077.82, 0.191896
2078.65, 0.191292
2079.48, 0.190688
2080.32, 0.190034
2081.15, 0.189329
2081.99, 0.188474
2082.83, 0.187366
2083.66, 0.186058
2084.5, 0.184749
2085.34, 0.183290
2086.18, 0.181680
2087.02, 0.179968
2087.86, 0.178106
2088.7, 0.175993
2089.54, 0.173829
2090.39, 0.171564
2091.23, 0.169048
2092.07, 0.166582
2092.92, 0.164166
2093.76, 0.161851
2094.61, 0.159485
2095.45, 0.157120
2096.3, 0.154906
2097.15, 0.152893
2098.0, 0.151232
2098.85, 0.149521
2099.7, 0.147961
2100.55, 0.146602
2101.4, 0.145545
2102.25, 0.144639
2103.1, 0.143935
2103.96, 0.143683
2104.81, 0.143230
2105.67, 0.142878
2106.52, 0.142928
2107.38, 0.142928
2108.24, 0.142978
2109.09, 0.143079
2109.95, 0.143331
2110.81, 0.143633
2111.67, 0.144337
2112.53, 0.145092
2113.39, 0.145847
2114.25, 0.146652
2115.12, 0.147508
2115.98, 0.148665
2116.84, 0.149923
2117.71, 0.151131
2118.58, 0.152389
2119.44, 0.153648
2120.31, 0.154906
2121.18, 0.156315
2122.04, 0.157623
2122.91, 0.159133
2123.78, 0.160542
2124.65, 0.161750
2125.52, 0.162706
2126.4, 0.163763
2127.27, 0.164870
2128.14, 0.165877
2129.02, 0.166833
2129.89, 0.167890
2130.77, 0.168947
2131.64, 0.169802
2132.52, 0.170457
2133.4, 0.171111
2134.27, 0.171816
2135.15, 0.172671
2136.03, 0.173376
2136.91, 0.173929
2137.79, 0.174433
2138.68, 0.174835
2139.56, 0.175238
2140.44, 0.175540
2141.33, 0.175791
2142.21, 0.176043
2143.1, 0.176144
2143.99, 0.175993
2144.87, 0.175691
2145.76, 0.175540
2146.65, 0.175389
2147.54, 0.175036
2148.43, 0.174634
2149.32, 0.174181
2150.21, 0.173627
2151.1, 0.173074
2151.99, 0.172470
2152.89, 0.171916
2153.78, 0.171312
2154.68, 0.170658
2155.57, 0.170004
2156.47, 0.169400
2157.37, 0.168947
2158.27, 0.168494
2159.16, 0.167940
2160.06, 0.167437
2160.96, 0.167034
2161.86, 0.166582
2162.77, 0.166129
2163.67, 0.165726
2164.57, 0.165172
2165.48, 0.164719
2166.38, 0.164518
2167.29, 0.164166
2168.2, 0.163814
2169.1, 0.163562
2170.01, 0.163461
2170.92, 0.163260
2171.83, 0.163059
2172.74, 0.163008
2173.65, 0.162857
2174.56, 0.162757
2175.47, 0.162807
2176.39, 0.162908
2177.3, 0.162757
2178.22, 0.162656
2179.13, 0.162706
2180.05, 0.162757
2180.96, 0.162538
2181.88, 0.162231
2182.8, 0.162012
2183.72, 0.161793
2184.64, 0.161487
2185.56, 0.161049
2186.48, 0.160611
2187.41, 0.160348
2188.33, 0.159735
2189.25, 0.159473
2190.18, 0.159298
2191.1, 0.158597
2192.03, 0.158028
2192.96, 0.157721
2193.89, 0.157415
2194.82, 0.156889
2195.74, 0.156364
2196.68, 0.156145
2197.61, 0.155751
2198.54, 0.155444
2199.47, 0.155138
2200.4, 0.154656
2201.34, 0.154481
2202.28, 0.154481
2203.21, 0.154306
2204.15, 0.153999
2205.08, 0.153912
2206.02, 0.154043
2206.96, 0.154131
2207.9, 0.154262
2208.84, 0.154612
2209.78, 0.155532
2210.73, 0.156451
2211.67, 0.156889
2212.61, 0.157590
2213.56, 0.158553
2214.5, 0.159341
2215.45, 0.160305
2216.4, 0.161093
2217.35, 0.161881
2218.3, 0.162494
2219.24, 0.162801
2220.2, 0.163195
2221.15, 0.163589
2222.1, 0.164202
2223.05, 0.164946
2224.0, 0.165515
2224.96, 0.165909
2225.91, 0.166085
2226.87, 0.166260
2227.83, 0.166873
2228.79, 0.167617
2229.74, 0.168011
2230.7, 0.168449
2231.66, 0.168843
2232.63, 0.169369
2233.59, 0.169938
2234.55, 0.170463
2235.51, 0.171076
2236.48, 0.171864
2237.44, 0.172521
2238.41, 0.173047
2239.38, 0.173660
2240.34, 0.174360
2241.31, 0.175017
2242.28, 0.175630
2243.25, 0.176287
2244.22, 0.176988
2245.19, 0.177338
2246.17, 0.177644
2247.14, 0.178170
2248.12, 0.178827
2249.09, 0.179308
2250.07, 0.179834
2251.04, 0.180315
2252.02, 0.180709
2253.0, 0.181498
2253.98, 0.182592
2254.96, 0.183030
2255.94, 0.183337
2256.92, 0.183950
2257.91, 0.184169
2258.89, 0.184256
2259.88, 0.184212
2260.86, 0.184081
2261.85, 0.184212
2262.83, 0.184431
2263.82, 0.184782
2264.81, 0.185001
2265.8, 0.185220
2266.79, 0.185438
2267.78, 0.185701
2268.78, 0.186183
2269.77, 0.186489
2270.76, 0.186708
2271.76, 0.186927
2272.75, 0.187190
2273.75, 0.187584
2274.75, 0.187891
2275.75, 0.188197
2276.75, 0.188591
2277.75, 0.188985
2278.75, 0.189379
2279.75, 0.189905
2280.75, 0.190036
2281.76, 0.189992
2282.76, 0.190080
2283.77, 0.190343
2284.77, 0.190737
2285.78, 0.190956
2286.79, 0.190868
2287.8, 0.190868
2288.81, 0.190999
2289.82, 0.190956
2290.83, 0.190956
2291.84, 0.190824
2292.86, 0.190737
2293.87, 0.190824
2294.89, 0.190605
2295.91, 0.190649
2296.92, 0.190780
2297.94, 0.190605
2298.96, 0.190299
2299.98, 0.190211
2301.0, 0.190167
2302.02, 0.190211
2303.04, 0.190211
2304.07, 0.190211
2305.09, 0.190299
2306.12, 0.190386
2307.15, 0.190343
2308.17, 0.190299
2309.2, 0.190036
2310.23, 0.189949
2311.26, 0.189905
2312.29, 0.189992
2313.32, 0.189861
2314.35, 0.189598
2315.39, 0.189248
2316.42, 0.188941
2317.46, 0.188635
2318.5, 0.188328
2319.53, 0.187934
2320.57, 0.187496
2321.61, 0.186840
2322.65, 0.186446
2323.69, 0.186183
2324.73, 0.185745
2325.78, 0.185088
2326.82, 0.184738
2327.86, 0.184650
2328.91, 0.184212
2329.96, 0.183687
2331.01, 0.183380
2332.05, 0.182855
2333.1, 0.182330
2334.15, 0.182111
2335.21, 0.181629
2336.26, 0.181016
2337.31, 0.180534
2338.36, 0.180053
2339.42, 0.179571
2340.48, 0.179046
2341.53, 0.178520
2342.59, 0.178082
2343.65, 0.177819
2344.71, 0.177601
2345.77, 0.177250
2346.83, 0.176856
2347.9, 0.176418
2348.96, 0.175849
2350.02, 0.175455
2351.09, 0.175105
2352.16, 0.174535
2353.23, 0.174010
2354.29, 0.173353
2355.36, 0.172696
2356.43, 0.171908
2357.51, 0.171164
2358.58, 0.170551
2359.65, 0.169675
2360.73, 0.168712
2361.8, 0.167880
2362.88, 0.167092
2363.96, 0.166172
2365.03, 0.165340
2366.11, 0.164464
2367.19, 0.163764
2368.27, 0.162844
2369.36, 0.162100
2370.44, 0.161356
2371.53, 0.160567
2372.61, 0.159735
2373.7, 0.159122
2374.78, 0.158728
2375.87, 0.158072
2376.96, 0.157458
2378.05, 0.156845
2379.14, 0.155970
2380.24, 0.155225
2381.33, 0.154525
2382.42, 0.153780
2383.52, 0.152729
2384.61, 0.151547
2385.71, 0.150715
2386.81, 0.149840
2387.91, 0.148745
2389.01, 0.147869
2390.11, 0.147300
2391.22, 0.146731
2392.32, 0.146030
2393.42, 0.145286
2394.53, 0.144760
2395.64, 0.144322
2396.74, 0.143753
2397.85, 0.143053
2398.96, 0.142177
2400.07, 0.141432
2401.18, 0.140819
2402.3, 0.140119
2403.41, 0.139418
2404.52, 0.138542
2405.64, 0.137623
2406.76, 0.136922
2407.88, 0.136222
2408.99, 0.135565
2410.11, 0.134777
2411.23, 0.134208
2412.36, 0.134032
2413.48, 0.133682
2414.6, 0.133376
2415.73, 0.132894
2416.85, 0.132412
2417.98, 0.132062
2419.11, 0.131931
2420.24, 0.131712
2421.37, 0.131449
2422.5, 0.131318
2423.64, 0.131055
2424.77, 0.130661
2425.9, 0.130486
2427.04, 0.130179
2428.18, 0.129741
2429.31, 0.129479
2430.45, 0.129216
2431.59, 0.128953
2432.73, 0.128734
2433.88, 0.128515
2435.02, 0.128077
2436.16, 0.127771
2437.31, 0.127683
2438.45, 0.127464
2439.6, 0.127026
2440.75, 0.126720
2441.9, 0.126413
2443.05, 0.126194
2444.2, 0.125888
2445.35, 0.125450
2446.51, 0.125100
2447.67, 0.124881
2448.82, 0.124662
2449.98, 0.124487
2451.14, 0.124355
2452.3, 0.124268
2453.46, 0.124049
2454.62, 0.123655
2455.78, 0.123655
2456.94, 0.123523
2458.11, 0.123348
2459.28, 0.123305
2460.44, 0.123261
2461.61, 0.123305
2462.78, 0.123173
2463.95, 0.123129
2465.12, 0.123086
2466.3, 0.122954
2467.47, 0.122910
2468.65, 0.123129
2469.82, 0.123129
2471.0, 0.122954
2472.18, 0.122954
2473.36, 0.123086
2474.54, 0.122998
2475.72, 0.123129
2476.9, 0.123217
2478.08, 0.123217
2479.27, 0.123348
2480.46, 0.123611
2481.64, 0.123523
2482.83, 0.123348
2484.02, 0.123305
2485.21, 0.123611
2486.4, 0.123918
2487.6, 0.124005
2488.79, 0.123786
2489.99, 0.123742
2491.18, 0.123699
2492.38, 0.123523
2493.58, 0.123348
2494.78, 0.123217
2495.98, 0.122954
2497.18, 0.122604
2498.39, 0.122385
2499.59, 0.122254
2500.8, 0.121947
2502.01, 0.121597
2503.21, 0.121509
2504.42, 0.121465
2505.63, 0.121378
2506.84, 0.121509
2508.06, 0.121553
2509.27, 0.121772
2510.49, 0.121728
2511.7, 0.121684
2512.92, 0.121860
2514.14, 0.121991
2515.36, 0.121860
2516.58, 0.121947
2517.8, 0.121772
2519.03, 0.121422
2520.25, 0.121203
2521.48, 0.121159
2522.7, 0.120852
2523.93, 0.120371
2525.16, 0.120020
2526.39, 0.119714
2527.62, 0.119145
2528.86, 0.118619
2530.09, 0.118006
2531.33, 0.117393
2532.56, 0.116955
2533.8, 0.116649
2535.04, 0.116036
2536.28, 0.115423
2537.52, 0.115204
2538.76, 0.114810
2540.01, 0.114284
2541.25, 0.113584
2542.5, 0.112708
2543.75, 0.112226
2544.99, 0.112051
2546.24, 0.111701
2547.49, 0.110957
2548.75, 0.110562
2550.0, 0.110212
2551.26, 0.109774
2552.51, 0.109293
2553.77, 0.109643
2555.03, 0.109993
2556.29, 0.109862
2557.55, 0.109555
2558.81, 0.108942
2560.08, 0.107716
2561.34, 0.106709
2562.61, 0.106622
2563.88, 0.106753
2565.14, 0.107497
2566.41, 0.108417
2567.68, 0.107979
2568.96, 0.106665
2570.23, 0.106403
2571.51, 0.106578
2572.78, 0.105045
2574.06, 0.104870
2575.34, 0.105177
2576.62, 0.104170
2577.9, 0.104476
2579.18, 0.105089
2580.47, 0.104170
2581.75, 0.103644
2583.04, 0.102287
2584.32, 0.101761
2585.61, 0.102681
2586.9, 0.101980
2588.2, 0.102068
2589.49, 0.102725
2590.78, 0.103119
2592.08, 0.102418
2593.37, 0.0990900
2594.67, 0.0956310
2595.97, 0.0976890
2597.27, 0.100667
2598.57, 0.101805
2599.88, 0.101586
2601.18, 0.100535
2602.49, 0.0998350
2603.79, 0.0989150
2605.1, 0.0974260
2606.41, 0.0978640
2607.72, 0.0989150
2609.03, 0.0990030
2610.35, 0.0991780
2611.66, 0.0993530
2612.98, 0.0990030
2614.3, 0.0989590
2615.62, 0.0972950
2616.94, 0.0958940
2618.26, 0.0967260
2619.58, 0.0957620
2620.91, 0.0954560
2622.23, 0.0970760
2623.56, 0.0972950
2624.89, 0.0962000
2626.22, 0.0941860
2627.55, 0.0943610
2628.88, 0.0939670
2630.21, 0.0920840
2631.55, 0.0928290
2632.89, 0.0933100
2634.22, 0.0929160
2635.56, 0.0932230
2636.9, 0.0930480
2638.25, 0.0925660
2639.59, 0.0919970
2640.93, 0.0913840
2642.28, 0.0908140
2643.63, 0.0905960
2644.98, 0.0896760
2646.33, 0.0891070
2647.68, 0.0891510
2649.03, 0.0888000
2650.39, 0.0881870
2651.74, 0.0872240
2653.1, 0.0867860
2654.46, 0.0867420
2655.82, 0.0863920
2657.18, 0.0866110
2658.54, 0.0857350
2659.9, 0.0850350
2661.27, 0.0848160
2662.64, 0.0844220
2664.01, 0.0822760
2665.38, 0.0800870
2666.74, 0.0796050
2668.12, 0.0804810
2669.49, 0.0788610
2670.87, 0.0776780
2672.24, 0.0797360
2673.62, 0.0799990
2675.0, 0.0785980
2676.38, 0.0768900
2677.76, 0.0766710
2679.15, 0.0765400
2680.54, 0.0770220
2681.92, 0.0766710
2683.31, 0.0755770
2684.7, 0.0749200
2686.09, 0.0743940
2687.48, 0.0738690
2688.88, 0.0733870
2690.27, 0.0726870
2691.67, 0.0714610
2693.07, 0.0694030
2694.47, 0.0681330
2695.87, 0.0680010
2697.27, 0.0680450
2698.67, 0.0672570
2700.08, 0.0658560
2701.49, 0.0647170
2702.9, 0.0640610
2704.31, 0.0632720
2705.72, 0.0624840
2707.13, 0.0614770
2708.54, 0.0599010
2709.96, 0.0580620
2711.38, 0.0571420
2712.8, 0.0574920
2714.22, 0.0571860
2715.64, 0.0563540
2717.06, 0.0553910
2718.49, 0.0542960
2719.91, 0.0525010
2721.34, 0.0519750
2722.77, 0.0519750
2724.2, 0.0506620
2725.63, 0.0505740
2727.07, 0.0507930
2728.5, 0.0503990
2729.94, 0.0498300
2731.38, 0.0491730
2732.82, 0.0482100
2734.26, 0.0467650
2735.7, 0.0459330
2737.15, 0.0453200
2738.59, 0.0434810
2740.04, 0.0417290
2741.49, 0.0410290
2742.94, 0.0408100
2744.39, 0.0398900
2745.84, 0.0387080
2747.3, 0.0372630
2748.76, 0.0356870
2750.21, 0.0339790
2751.67, 0.0322710
2753.14, 0.0303880
2754.6, 0.0277170
2756.06, 0.0255720
2757.53, 0.0243020
2759.0, 0.0225500
2760.46, 0.0207110
2761.94, 0.0187410
2763.41, 0.0171210
2764.88, 0.0161140
2766.36, 0.0151500
2767.83, 0.0142310
2769.31, 0.0136620
2770.79, 0.0135740
2772.27, 0.0139240
2773.76, 0.0145370
2775.24, 0.0153250
2776.73, 0.0160260
2778.22, 0.0168580
2779.71, 0.0177340
2781.2, 0.0186100
2782.69, 0.0195730
2784.18, 0.0205800
2785.68, 0.0213680
2787.18, 0.0223310
2788.68, 0.0235140
2790.18, 0.0245650
2791.68, 0.0253530
2793.19, 0.0259220
2794.69, 0.0261850
2796.2, 0.0264470
2797.71, 0.0266660
2799.22, 0.0267100
2800.73, 0.0264910
2802.24, 0.0259660
2803.76, 0.0256590
2805.28, 0.0257030
2806.8, 0.0254840
2808.32, 0.0250900
2809.84, 0.0246960
2811.36, 0.0245210
2812.89, 0.0241700
2814.42, 0.0236890
2815.94, 0.0232510
2817.48, 0.0229880
2819.01, 0.0226380
2820.54, 0.0222880
2822.08, 0.0221560
2823.61, 0.0220250
2825.15, 0.0218060
2826.69, 0.0216750
2828.23, 0.0215430
2829.78, 0.0213240
2831.32, 0.0211490
2832.87, 0.0210180
2834.42, 0.0210180
2835.97, 0.0210620
2837.52, 0.0210620
2839.08, 0.0211490
2840.63, 0.0211930
2842.19, 0.0211050
2843.75, 0.0210620
2845.31, 0.0211930
2846.87, 0.0212370
2848.44, 0.0212810
2850.0, 0.0213240
2851.57, 0.0214560
2853.14, 0.0214120
2854.71, 0.0214560
2856.28, 0.0215430
2857.86, 0.0215430
2859.43, 0.0215430
2861.01, 0.0215870
2862.59, 0.0216750
2864.17, 0.0215430
2865.76, 0.0214120
2867.34, 0.0214120
2868.93, 0.0213680
2870.52, 0.0213240
2872.11, 0.0212810
2873.7, 0.0211050
2875.29, 0.0209740
2876.89, 0.0207990
2878.49, 0.0206680
2880.08, 0.0204490
2881.69, 0.0202730
2883.29, 0.0200550
2884.89, 0.0197040
2886.5, 0.0194850
2888.11, 0.0194410
2889.72, 0.0192660
2891.33, 0.0190470
2892.94, 0.0188280
2894.56, 0.0187410
2896.17, 0.0185220
2897.79, 0.0183030
2899.42, 0.0180840
2901.04, 0.0177780
2902.66, 0.0176900
2904.29, 0.0176020
2905.92, 0.0173830
2907.55, 0.0171650
2909.18, 0.0169020
2910.81, 0.0166830
2912.45, 0.0165080
2914.08, 0.0164200
2915.72, 0.0161570
2917.36, 0.0159820
2919.01, 0.0158950
2920.65, 0.0157200
2922.3, 0.0154570
2923.94, 0.0153690
2925.59, 0.0152380
2927.25, 0.0150630
2928.9, 0.0149310
2930.56, 0.0148000
2932.21, 0.0146690
2933.87, 0.0144940
2935.53, 0.0144060
2937.2, 0.0143180
2938.86, 0.0140990
2940.53, 0.0139680
2942.2, 0.0139240
2943.87, 0.0138810
2945.54, 0.0137930
2947.22, 0.0135740
2948.89, 0.0133550
2950.57, 0.0132670
2952.25, 0.0131800
2953.93, 0.0131360
2955.62, 0.0130490
2957.3, 0.0130490
2958.99, 0.0130490
2960.68, 0.0129610
2962.37, 0.0128300
2964.07, 0.0126540
2965.76, 0.0125670
2967.46, 0.0124790
2969.16, 0.0124360
2970.86, 0.0123920
2972.56, 0.0123920
2974.27, 0.0124360
2975.98, 0.0123920
2977.69, 0.0123480
2979.4, 0.0124360
2981.11, 0.0123920
2982.83, 0.0123480
2984.54, 0.0124360
2986.26, 0.0124360
2987.98, 0.0123480
2989.71, 0.0123040
2991.43, 0.0124360
2993.16, 0.0126110
2994.89, 0.0126540
2996.62, 0.0125670
2998.35, 0.0126540
3000.09, 0.0127420
3001.83, 0.0127420
3003.57, 0.0128300
3005.31, 0.0130920
3007.05, 0.0132670
3008.79, 0.0133110
3010.54, 0.0133550
3012.29, 0.0133550
3014.04, 0.0134860
3015.8, 0.0136180
3017.55, 0.0137050
3019.31, 0.0137050
3021.07, 0.0137490
3022.83, 0.0139680
3024.59, 0.0140560
3026.36, 0.0141430
3028.13, 0.0141870
3029.9, 0.0142310
3031.67, 0.0142750
3033.44, 0.0144060
3035.22, 0.0145370
3037.0, 0.0146250
3038.78, 0.0147560
3040.56, 0.0148880
3042.34, 0.0148880
3044.13, 0.0149310
3045.92, 0.0150190
3047.71, 0.0151500
3049.5, 0.0152820
3051.3, 0.0152820
3053.09, 0.0152820
3054.89, 0.0152820
3056.69, 0.0153690
3058.5, 0.0155010
3060.3, 0.0158070
3062.11, 0.0158510
3063.92, 0.0158510
3065.73, 0.0159390
3067.55, 0.0159820
3069.36, 0.0160260
3071.18, 0.0162010
3073.0, 0.0162450
3074.82, 0.0162450
3076.65, 0.0162890
3078.48, 0.0164200
3080.31, 0.0165080
3082.14, 0.0165520
3083.97, 0.0166830
3085.8, 0.0168580
3087.64, 0.0169020
3089.48, 0.0169460
3091.33, 0.0169890
3093.17, 0.0171210
3095.02, 0.0171650
3096.87, 0.0172080
3098.72, 0.0172960
3100.57, 0.0173400
3102.43, 0.0173830
3104.28, 0.0175150
3106.14, 0.0176020
3108.01, 0.0175590
3109.87, 0.0176020
3111.74, 0.0176020
3113.61, 0.0177340
3115.48, 0.0178650
3117.35, 0.0178650
3119.23, 0.0178650
3121.1, 0.0179090
3122.98, 0.0180400
3124.87, 0.0181720
3126.75, 0.0182150
3128.64, 0.0182590
3130.53, 0.0183030
3132.42, 0.0182150
3134.31, 0.0182590
3136.21, 0.0184780
3138.11, 0.0185220
3140.01, 0.0185660
3141.91, 0.0186970
3143.82, 0.0188280
3145.73, 0.0189160
3147.64, 0.0189600
3149.55, 0.0190040
3151.46, 0.0191350
3153.38, 0.0191350
3155.3, 0.0191350
3157.22, 0.0192660
3159.14, 0.0194410
3161.07, 0.0195290
3163.0, 0.0196600
3164.93, 0.0197480
3166.86, 0.0197920
3168.8, 0.0199230
3170.74, 0.0199230
3172.68, 0.0200110
3174.62, 0.0201420
3176.56, 0.0202300
3178.51, 0.0203170
3180.46, 0.0203610
3182.42, 0.0204920
3184.37, 0.0204920
3186.33, 0.0206240
3188.29, 0.0206240
3190.25, 0.0206680
3192.21, 0.0208860
3194.18, 0.0210620
3196.15, 0.0211490
3198.12, 0.0212810
3200.09, 0.0214120
3202.07, 0.0214120
3204.05, 0.0214990
3206.03, 0.0215870
3208.02, 0.0216310
3210.0, 0.0217180
3211.99, 0.0218060
3213.98, 0.0219370
3215.98, 0.0219370
3217.97, 0.0219810
3219.97, 0.0221120
3221.97, 0.0222440
3223.98, 0.0223750
3225.98, 0.0223750
3227.99, 0.0223750
3230.0, 0.0225500
3232.02, 0.0226820
3234.03, 0.0227260
3236.05, 0.0228130
3238.07, 0.0228130
3240.1, 0.0228130
3242.12, 0.0229010
3244.15, 0.0229880
3246.18, 0.0229880
3248.22, 0.0230760
3250.25, 0.0231630
3252.29, 0.0232070
3254.33, 0.0232950
3256.38, 0.0233390
3258.43, 0.0234700
3260.47, 0.0235570
3262.53, 0.0235140
3264.58, 0.0235570
3266.64, 0.0237330
3268.7, 0.0238200
3270.76, 0.0238200
3272.82, 0.0238640
3274.89, 0.0239950
3276.96, 0.0241270
3279.04, 0.0241700
3281.11, 0.0242580
3283.19, 0.0243460
3285.27, 0.0243890
3287.35, 0.0243890
3289.44, 0.0245210
3291.53, 0.0246520
3293.62, 0.0247400
3295.71, 0.0247400
3297.81, 0.0247840
3299.91, 0.0248710
3302.01, 0.0250460
3304.11, 0.0251780
3306.22, 0.0252650
3308.33, 0.0252650
3310.44, 0.0252650
3312.56, 0.0253530
3314.68, 0.0255280
3316.8, 0.0256150
3318.92, 0.0257030
3321.05, 0.0257910
3323.18, 0.0258780
3325.31, 0.0259220
3327.44, 0.0260100
3329.58, 0.0261850
3331.72, 0.0262280
3333.86, 0.0262720
3336.01, 0.0263600
3338.16, 0.0264910
3340.31, 0.0266660
3342.46, 0.0267980
3344.61, 0.0268850
3346.77, 0.0269730
3348.94, 0.0270600
3351.1, 0.0271040
3353.27, 0.0272790
3355.44, 0.0274550
3357.61, 0.0274980
3359.79, 0.0274980
3361.97, 0.0277170
3364.15, 0.0278920
3366.33, 0.0279360
3368.52, 0.0280240
3370.71, 0.0281550
3372.9, 0.0282430
3375.1, 0.0283740
3377.3, 0.0285490
3379.5, 0.0286370
3381.71, 0.0287240
3383.91, 0.0289870
3386.12, 0.0291620
3388.34, 0.0292500
3390.55, 0.0293810
3392.77, 0.0294690
3394.99, 0.0296880
3397.22, 0.0299500
3399.45, 0.0300820
3401.68, 0.0301690
3403.91, 0.0303010
3406.15, 0.0305200
3408.39, 0.0306070
3410.63, 0.0307390
3412.87, 0.0309570
3415.12, 0.0310450
3417.37, 0.0311760
3419.63, 0.0313520
3421.88, 0.0314830
3424.14, 0.0316140
3426.41, 0.0318330
3428.67, 0.0320080
3430.94, 0.0322270
3433.21, 0.0323590
3435.49, 0.0324460
3437.77, 0.0325340
3440.05, 0.0326650
3442.33, 0.0328840
3444.62, 0.0330150
3446.91, 0.0331910
3449.2, 0.0334100
3451.5, 0.0335410
3453.8, 0.0336290
3456.1, 0.0338040
3458.41, 0.0339790
3460.72, 0.0341100
3463.03, 0.0342420
3465.34, 0.0344600
3467.66, 0.0345920
3469.98, 0.0345920
3472.31, 0.0347230
3474.63, 0.0348550
3476.96, 0.0349860
3479.3, 0.0352920
3481.64, 0.0354680
3483.97, 0.0355110
3486.32, 0.0357300
3488.66, 0.0359490
3491.01, 0.0359930
3493.36, 0.0360810
3495.72, 0.0361680
3498.08, 0.0363000
3500.44, 0.0365180
3502.81, 0.0368250
3505.18, 0.0370440
3507.55, 0.0370880
3509.92, 0.0371750
3512.3, 0.0373070
3514.68, 0.0374380
3517.06, 0.0377010
3519.45, 0.0378760
3521.84, 0.0380510
3524.24, 0.0381820
3526.64, 0.0383580
3529.04, 0.0385330
3531.44, 0.0386640
3533.85, 0.0387950
3536.26, 0.0389270
3538.67, 0.0390580
3541.09, 0.0392330
3543.51, 0.0394080
3545.93, 0.0396270
3548.36, 0.0397590
3550.79, 0.0399780
3553.22, 0.0401090
3555.66, 0.0402400
3558.1, 0.0404160
3560.54, 0.0405470
3562.99, 0.0407220
3565.44, 0.0408970
3567.9, 0.0410720
3570.35, 0.0412040
3572.81, 0.0413350
3575.28, 0.0415100
3577.75, 0.0416850
3580.22, 0.0418170
3582.69, 0.0419480
3585.17, 0.0421670
3587.65, 0.0423860
3590.14, 0.0424740
3592.62, 0.0426490
3595.11, 0.0428680
3597.61, 0.0429550
3600.11, 0.0430870
3602.61, 0.0432180
3605.11, 0.0433050
3607.62, 0.0433930
3610.14, 0.0434370
3612.65, 0.0435240
3615.17, 0.0436560
3617.69, 0.0437870
3620.22, 0.0438310
3622.75, 0.0439620
3625.28, 0.0440500
3627.82, 0.0440940
3630.36, 0.0442250
3632.9, 0.0443130
3635.45, 0.0443560
3638.0, 0.0444440
3640.56, 0.0444440
3643.12, 0.0444880
3645.68, 0.0446190
3648.24, 0.0446190
3650.81, 0.0446630
3653.39, 0.0447940
3655.96, 0.0449260
3658.54, 0.0450130
3661.13, 0.0450570
3663.71, 0.0451450
3666.3, 0.0452320
3668.9, 0.0453200
3671.5, 0.0453630
3674.1, 0.0454510
3676.7, 0.0455820
3679.31, 0.0457140
3681.93, 0.0458450
3684.54, 0.0460200
3687.17, 0.0461520
3689.79, 0.0462390
3692.42, 0.0463270
3695.05, 0.0464580
3697.69, 0.0465890
3700.32, 0.0466770
3702.97, 0.0467210
3705.61, 0.0468080
3708.27, 0.0468520
3710.92, 0.0468520
3713.58, 0.0470270
3716.24, 0.0472030
3718.91, 0.0472900
3721.58, 0.0473340
3724.25, 0.0474650
3726.93, 0.0475530
3729.61, 0.0475530
3732.29, 0.0475530
3734.98, 0.0476840
3737.67, 0.0477280
3740.37, 0.0477720
3743.07, 0.0478590
3745.78, 0.0479470
3748.49, 0.0480340
3751.2, 0.0480340
3753.91, 0.0480340
3756.63, 0.0480340
3759.36, 0.0480340
3762.09, 0.0479910
3764.82, 0.0480780
3767.55, 0.0480340
3770.29, 0.0480340
3773.04, 0.0479910
3775.78, 0.0479030
3778.54, 0.0478160
3781.29, 0.0477280
3784.05, 0.0475970
3786.82, 0.0475090
3789.59, 0.0474210
3792.36, 0.0473340
3795.13, 0.0472460
3797.92, 0.0471150
3800.7, 0.0469840
3803.49, 0.0468520
3806.28, 0.0467650
3809.08, 0.0465890
3811.88, 0.0464580
3814.68, 0.0463710
3817.49, 0.0462830
3820.31, 0.0462830
3823.12, 0.0462390
3825.94, 0.0460640
3828.77, 0.0459330
3831.6, 0.0458450
3834.43, 0.0457140
3837.27, 0.0456260
3840.11, 0.0454510
3842.96, 0.0453630
3845.81, 0.0451450
3848.67, 0.0449690
3851.53, 0.0448380
3854.39, 0.0447070
3857.26, 0.0445750
3860.13, 0.0444440
3863.01, 0.0442690
3865.89, 0.0440940
3868.77, 0.0439620
3871.66, 0.0438310
3874.55, 0.0437000
3877.45, 0.0435680
3880.35, 0.0434810
3883.26, 0.0433930
3886.17, 0.0432620
3889.09, 0.0431740
3892.01, 0.0430870
3894.93, 0.0429990
3897.86, 0.0429550
3900.79, 0.0429110
3903.73, 0.0428680
3906.67, 0.0428680
3909.62, 0.0427360
3912.57, 0.0426050
3915.52, 0.0425170
3918.48, 0.0424740
3921.45, 0.0423420
3924.42, 0.0421670
3927.39, 0.0419920
3930.37, 0.0417730
3933.35, 0.0416420
3936.34, 0.0415540
3939.33, 0.0413790
3942.32, 0.0412040
3945.32, 0.0410290
3948.33, 0.0407660
3951.34, 0.0407660
3954.35, 0.0407220
3957.37, 0.0406340
3960.39, 0.0406340
3963.42, 0.0405910
3966.45, 0.0405910
3969.49, 0.0405910
3972.53, 0.0406340
3975.58, 0.0407220
3978.63, 0.0408100
3981.68, 0.0408100
3984.75, 0.0409410
3987.81, 0.0410720
3990.88, 0.0412470
3993.95, 0.0413790
3997.03, 0.0415100
4000.12, 0.0414660
4003.21, 0.0414660
4006.3, 0.0415980
4009.4, 0.0416420
4012.5, 0.0416420
4015.61, 0.0416850
4018.72, 0.0417730
4021.84, 0.0417730
4024.96, 0.0417290
4028.09, 0.0417290
4031.22, 0.0416850
4034.36, 0.0416850
4037.5, 0.0417730
4040.65, 0.0419040
4043.8, 0.0420790
4046.96, 0.0421230
4050.12, 0.0422550
4053.29, 0.0424740
4056.46, 0.0426920
4059.64, 0.0429110
4062.82, 0.0431740
4066.0, 0.0433930
4069.19, 0.0437000
4072.39, 0.0440500
4075.59, 0.0443560
4078.8, 0.0446190
4082.01, 0.0449690
4085.23, 0.0453630
4088.45, 0.0458890
4091.68, 0.0463270
4094.91, 0.0467650
4098.15, 0.0472460
4101.39, 0.0476840
4104.63, 0.0481660
4107.89, 0.0486470
4111.14, 0.0490420
4114.41, 0.0494790
4117.67, 0.0498740
4120.95, 0.0502240
4124.23, 0.0505740
4127.51, 0.0510120
4130.8, 0.0514060
4134.09, 0.0517130
4137.39, 0.0520630
4140.7, 0.0524130
4144.01, 0.0527630
4147.32, 0.0529820
4150.64, 0.0532010
4153.97, 0.0534640
4157.3, 0.0536830
4160.64, 0.0538580
4163.98, 0.0540770
4167.33, 0.0542080
4170.68, 0.0543840
4174.04, 0.0546030
4177.4, 0.0547780
4180.77, 0.0549970
4184.14, 0.0551280
4187.52, 0.0552590
4190.91, 0.0553470
4194.3, 0.0555220
4197.69, 0.0556970
4201.1, 0.0557850
4204.5, 0.0558290
4207.92, 0.0558720
4211.34, 0.0559160
4214.76, 0.0559160
4218.19, 0.0558720
4221.62, 0.0558720
4225.06, 0.0560480
4228.51, 0.0561350
4231.96, 0.0561350
4235.42, 0.0561350
4238.88, 0.0563100
4242.35, 0.0564850
4245.83, 0.0567040
4249.31, 0.0570550
4252.79, 0.0573610
4256.28, 0.0574920
4259.78, 0.0574050
4263.29, 0.0573610
4266.79, 0.0573170
4270.31, 0.0571860
4273.83, 0.0570550
4277.35, 0.0570980
4280.89, 0.0571420
4284.42, 0.0572300
4287.97, 0.0572740
4291.52, 0.0573170
4295.07, 0.0573170
4298.63, 0.0573610
4302.2, 0.0574490
4305.78, 0.0576240
4309.35, 0.0577110
4312.94, 0.0577110
4316.53, 0.0577550
4320.13, 0.0578870
4323.73, 0.0580180
4327.34, 0.0580620
4330.96, 0.0580620
4334.58, 0.0580620
4338.21, 0.0580620
4341.84, 0.0580620
4345.48, 0.0579740
4349.12, 0.0579740
4352.77, 0.0580180
4356.43, 0.0579740
4360.1, 0.0579300
4363.76, 0.0578430
4367.44, 0.0577110
4371.12, 0.0577110
4374.81, 0.0576240
4378.51, 0.0575800
4382.21, 0.0575360
4385.92, 0.0574490
4389.63, 0.0572740
4393.35, 0.0570980
4397.08, 0.0569670
4400.81, 0.0568360
4404.55, 0.0566610
4408.29, 0.0564420
4412.04, 0.0562660
4415.8, 0.0561790
4419.57, 0.0560480
4423.34, 0.0559600
4427.12, 0.0557410
4430.9, 0.0555220
4434.69, 0.0553470
4438.49, 0.0551720
4442.29, 0.0549970
4446.1, 0.0548210
4449.92, 0.0546030
4453.74, 0.0545150
4457.57, 0.0543400
4461.41, 0.0541210
4465.25, 0.0539020
4469.1, 0.0537270
4472.95, 0.0535520
4476.82, 0.0534200
4480.69, 0.0532450
4484.56, 0.0531140
4488.44, 0.0530260
4492.33, 0.0529390
4496.23, 0.0527630
4500.13, 0.0525880
4504.04, 0.0524570
4507.96, 0.0523260
4511.88, 0.0522820
4515.81, 0.0522820
4519.75, 0.0521500
4523.69, 0.0520190
4527.65, 0.0519320
4531.6, 0.0519320
4535.57, 0.0518440
4539.54, 0.0518000
4543.52, 0.0517560
4547.5, 0.0516690
4551.5, 0.0515810
4555.5, 0.0515810
4559.5, 0.0515370
4563.52, 0.0515370
4567.54, 0.0514500
4571.56, 0.0513620
4575.6, 0.0513620
4579.64, 0.0511870
4583.69, 0.0510560
4587.75, 0.0510120
4591.81, 0.0510120
4595.88, 0.0509680
4599.96, 0.0509240
4604.04, 0.0508810
4608.14, 0.0507930
4612.24, 0.0507490
4616.34, 0.0507050
4620.46, 0.0507050
4624.58, 0.0507490
4628.71, 0.0507930
4632.84, 0.0508370
4636.99, 0.0508370
4641.14, 0.0508370
4645.3, 0.0507930
4649.47, 0.0507930
4653.64, 0.0507490
4657.82, 0.0507930
4662.01, 0.0507930
4666.21, 0.0507490
4670.41, 0.0506620
4674.62, 0.0506620
4678.84, 0.0506180
4683.07, 0.0506180
4687.3, 0.0506620
4691.54, 0.0506620
4695.79, 0.0506620
4700.05, 0.0507050
4704.31, 0.0507490
4708.59, 0.0508370
4712.87, 0.0509240
4717.15, 0.0510120
4721.45, 0.0511430
4725.76, 0.0512750
4730.07, 0.0514060
4734.39, 0.0516250
4738.72, 0.0518000
4743.05, 0.0518880
4747.39, 0.0519750
4751.75, 0.0520630
4756.1, 0.0521940
4760.47, 0.0522820
4764.85, 0.0523260
4769.23, 0.0523690
4773.62, 0.0524130
4778.02, 0.0524570
4782.43, 0.0524570
4786.85, 0.0525010
4791.27, 0.0525450
4795.7, 0.0525010
4800.14, 0.0524130
4804.59, 0.0523690
4809.05, 0.0523690
4813.51, 0.0523690
4817.99, 0.0524130
4822.47, 0.0524130
4826.96, 0.0523690
4831.46, 0.0523690
4835.96, 0.0523690
4840.48, 0.0522820
4845.0, 0.0521940
4849.54, 0.0521500
4854.08, 0.0521070
4858.63, 0.0520630
4863.18, 0.0519320
4867.75, 0.0518440
4872.33, 0.0518000
4876.91, 0.0517130
4881.5, 0.0516250
4886.1, 0.0515810
4890.71, 0.0514500
4895.33, 0.0512750
4899.96, 0.0511000
4904.59, 0.0509680
4909.24, 0.0508370
4913.89, 0.0506620
4918.55, 0.0504870
4923.22, 0.0502240
4927.9, 0.0499610
4932.59, 0.0498740
4937.29, 0.0497420
4942.0, 0.0496110
4946.71, 0.0494790
4951.44, 0.0492610
4956.17, 0.0490850
4960.91, 0.0489100
4965.67, 0.0488230
4970.43, 0.0487350
4975.2, 0.0486040
4979.98, 0.0484290
4984.76, 0.0483410
4989.56, 0.0482100
4994.37, 0.0481660
4999.18, 0.0480340
5004.01, 0.0479470
5008.84, 0.0478590
5013.69, 0.0477720
5018.54, 0.0476840
5023.4, 0.0476840
5028.28, 0.0476400
5033.16, 0.0476400
5038.05, 0.0477280
5042.95, 0.0476840
5047.86, 0.0475970
5052.78, 0.0475970
5057.71, 0.0476400
5062.65, 0.0476840
5067.6, 0.0475970
5072.56, 0.0475970
5077.53, 0.0475090
5082.5, 0.0474210
5087.49, 0.0474210
5092.49, 0.0473780
5097.5, 0.0473340
5102.51, 0.0472460
5107.54, 0.0471590
5112.58, 0.0470710
5117.62, 0.0469840
5122.68, 0.0468960
5127.75, 0.0468080
5132.82, 0.0467210
5137.91, 0.0465460
5143.01, 0.0462830
5148.12, 0.0460640
5153.23, 0.0460200
5158.36, 0.0459330
5163.5, 0.0458010
5168.65, 0.0456260
5173.81, 0.0455390
5178.98, 0.0454510
5184.15, 0.0452760
5189.34, 0.0450570
5194.54, 0.0448380
5199.75, 0.0445750
5204.98, 0.0444440
5210.21, 0.0441370
5215.45, 0.0439620
5220.7, 0.0440500
5225.96, 0.0439180
5231.23, 0.0437000
5236.52, 0.0434810
5241.81, 0.0433490
5247.12, 0.0432180
5252.44, 0.0430430
5257.76, 0.0429550
5263.1, 0.0428240
5268.45, 0.0425610
5273.81, 0.0422980
5279.18, 0.0421230
5284.56, 0.0419480
5289.95, 0.0416420
5295.36, 0.0415100
5300.77, 0.0414660
5306.2, 0.0412470
5311.63, 0.0411160
5317.08, 0.0409410
5322.54, 0.0407220
5328.01, 0.0405030
5333.49, 0.0403720
5338.98, 0.0401970
5344.49, 0.0397590
5350.0, 0.0392770
5355.53, 0.0392770
5361.07, 0.0393650
5366.62, 0.0393210
5372.18, 0.0391460
5377.75, 0.0389270
5383.34, 0.0387520
5388.93, 0.0385760
5394.54, 0.0384010
5400.16, 0.0382260
5405.79, 0.0379200
5411.44, 0.0376130
5417.09, 0.0370880
5422.76, 0.0366060
5428.43, 0.0369130
5434.12, 0.0370000
5439.83, 0.0367810
5445.54, 0.0365620
5451.26, 0.0363430
5457.0, 0.0359930
5462.75, 0.0355550
5468.52, 0.0353800
5474.29, 0.0352050
5480.08, 0.0349860
5485.88, 0.0350300
5491.69, 0.0349420
5497.51, 0.0346360
5503.35, 0.0344170
5509.2, 0.0343290
5515.06, 0.0340660
5520.93, 0.0337600
5526.82, 0.0335850
5532.71, 0.0334530
5538.63, 0.0332340
5544.55, 0.0328840
5550.49, 0.0324020
5556.44, 0.0320960
5562.4, 0.0319650
5568.37, 0.0317890
5574.36, 0.0312640
5580.36, 0.0308700
5586.37, 0.0311760
5592.4, 0.0312200
5598.44, 0.0309140
5604.49, 0.0306070
5610.56, 0.0303880
5616.63, 0.0301260
5622.73, 0.0299070
5628.83, 0.0295560
5634.95, 0.0289430
5641.08, 0.0281990
5647.23, 0.0281550
5653.39, 0.0281110
5659.56, 0.0279360
5665.74, 0.0277610
5671.94, 0.0272360
5678.15, 0.0268420
5684.38, 0.0267100
5690.62, 0.0263160
5696.87, 0.0260100
5703.14, 0.0256150
5709.42, 0.0249150
5715.72, 0.0246080
5722.03, 0.0244330
5728.35, 0.0242140
5734.69, 0.0239080
5741.03, 0.0233820
5747.4, 0.0228130
5753.78, 0.0226820
5760.17, 0.0220250
5766.58, 0.0210180
5773.0, 0.0211050
5779.44, 0.0211930
5785.88, 0.0209740
5792.35, 0.0206240
5798.83, 0.0202300
5805.32, 0.0199230
5811.83, 0.0194410
5818.35, 0.0186530
5824.89, 0.0183030
5831.45, 0.0184340
5838.01, 0.0184340
5844.59, 0.0183030
5851.19, 0.0179970
5857.8, 0.0176460
5864.43, 0.0173830
5871.07, 0.0172080
5877.73, 0.0164640
5884.4, 0.0163330
5891.09, 0.0165080
5897.79, 0.0163760
5904.5, 0.0167700
5911.23, 0.0168140
5917.98, 0.0166390
5924.75, 0.0165080
5931.53, 0.0160260
5938.32, 0.0157630
5945.13, 0.0162450
5951.96, 0.0164200
5958.8, 0.0163330
5965.65, 0.0160260
5972.53, 0.0160260
5979.42, 0.0160700
5986.32, 0.0158070
5993.24, 0.0157630
6000.18, 0.0159390
6007.13, 0.0158950
6014.1, 0.0157200
6021.08, 0.0158070
6028.09, 0.0158070
6035.1, 0.0155880
6042.14, 0.0148440
6049.19, 0.0142310
6056.25, 0.0147560
6063.34, 0.0150190
6070.44, 0.0147120
6077.55, 0.0147120
6084.69, 0.0148880
6091.84, 0.0148000
6099.0, 0.0145810
6106.19, 0.0142310
6113.39, 0.0138370
6120.61, 0.0139680
6127.84, 0.0142310
6135.09, 0.0141430
6142.36, 0.0139240
6149.65, 0.0137930
6156.95, 0.0135740
6164.27, 0.0134430
6171.61, 0.0134860
6178.97, 0.0132240
6186.34, 0.0129610
6193.73, 0.0131360
6201.14, 0.0132240
6208.57, 0.0131360
6216.01, 0.0130920
6223.47, 0.0130490
6230.95, 0.0130050
6238.45, 0.0129610
6245.97, 0.0129170
6253.5, 0.0128730
6261.06, 0.0128300
6268.63, 0.0127860
6276.21, 0.0128300
6283.82, 0.0128730
6291.45, 0.0127860
6299.1, 0.0126980
6306.76, 0.0126540
6314.44, 0.0126980
6322.14, 0.0126980
6329.86, 0.0126980
6337.6, 0.0123480
6345.35, 0.0120850
6353.13, 0.0123480
6360.92, 0.0123920
6368.74, 0.0121730
6376.57, 0.0121730
6384.43, 0.0121290
6392.3, 0.0120410
6400.19, 0.0118660
6408.1, 0.0112530
6416.03, 0.0109030
6423.98, 0.0112530
6431.95, 0.0113410
6439.94, 0.0113410
6447.95, 0.0112970
6455.98, 0.0112100
6464.03, 0.0110340
6472.1, 0.0107280
6480.19, 0.0104650
6488.31, 0.0100710
6496.44, 0.00989600
6504.59, 0.0101150
6512.76, 0.0101150
6520.95, 0.00980800
6529.16, 0.00976500
6537.4, 0.00963300
6545.65, 0.00945800
6553.92, 0.00919500
6562.22, 0.00888900
6570.54, 0.00853800
6578.88, 0.00845100
6587.23, 0.00827600
6595.61, 0.00814400
6604.02, 0.00805700
6612.44, 0.00779400
6620.89, 0.00753100
6629.35, 0.00709400
6637.84, 0.00669900
6646.35, 0.00661200
6654.88, 0.00661200
6663.44, 0.00639300
6672.01, 0.00613000
6680.61, 0.00591100
6689.23, 0.00569200
6697.88, 0.00556100
6706.54, 0.00534200
6715.23, 0.00516700
6723.94, 0.00503600
6732.67, 0.00494800
6741.42, 0.00490400
6750.2, 0.00494800
6759.0, 0.00499200
6767.82, 0.00503600
6776.67, 0.00538600
6785.54, 0.00582400
6794.44, 0.00634900
6803.35, 0.00700600
6812.29, 0.00753100
6821.26, 0.00775000
6830.24, 0.00788200
6839.25, 0.00801300
6848.29, 0.00792500
6857.35, 0.00761900
6866.43, 0.00757500
6875.54, 0.00779400
6884.67, 0.00792500
6893.82, 0.00810100
6903.0, 0.00840700
6912.2, 0.00888900
6921.43, 0.00941400
6930.69, 0.00989600
6939.96, 0.0104650
6949.27, 0.0111220
6958.59, 0.0119980
6967.95, 0.0136180
6977.33, 0.0155880
6986.73, 0.0175590
6996.16, 0.0198360
7005.61, 0.0224190
7015.09, 0.0251780
7024.6, 0.0281550
7034.13, 0.0312200
7043.69, 0.0339790
7053.27, 0.0377440
7062.88, 0.0418170
7072.52, 0.0454950
7082.18, 0.0487790
7091.87, 0.0518000
7101.58, 0.0544710
7111.32, 0.0568790
7121.09, 0.0592000
7130.88, 0.0616520
7140.71, 0.0634040
7150.56, 0.0653300
7160.43, 0.0674760
7170.33, 0.0694900
7180.27, 0.0722490
7190.23, 0.0747880
7200.21, 0.0764520
7210.23, 0.0782910
7220.27, 0.0807430
7230.34, 0.0825830
7240.44, 0.0838520
7250.56, 0.0847720
7260.72, 0.0852540
7270.9, 0.0848160
7281.12, 0.0841150
7291.36, 0.0833710
7301.63, 0.0815750
7311.93, 0.0792110
7322.25, 0.0764520
7332.61, 0.0731680
7343.0, 0.0700590
7353.41, 0.0672570
7363.86, 0.0641040
7374.33, 0.0607330
7384.83, 0.0576240
7395.37, 0.0554780
7405.93, 0.0547780
7416.53, 0.0555220
7427.15, 0.0569230
7437.81, 0.0581060
7448.5, 0.0586310
7459.22, 0.0585430
7469.96, 0.0582370
7480.74, 0.0579740
7491.55, 0.0577990
7502.39, 0.0576240
7513.27, 0.0572740
7524.17, 0.0569230
7535.11, 0.0563980
7546.08, 0.0557850
7557.08, 0.0549530
7568.11, 0.0539460
7579.17, 0.0525450
7590.27, 0.0508370
7601.4, 0.0487790
7612.56, 0.0462830
7623.76, 0.0435240
7634.98, 0.0406340
7646.24, 0.0379630
7657.54, 0.0355550
7668.87, 0.0335410
7680.23, 0.0320080
7691.62, 0.0309140
7703.05, 0.0302570
7714.51, 0.0299070
7726.01, 0.0296880
7737.54, 0.0298190
7749.11, 0.0301690
7760.71, 0.0306510
7772.35, 0.0310010
7784.02, 0.0313520
7795.72, 0.0318330
7807.46, 0.0323590
7819.23, 0.0329720
7831.04, 0.0334530
7842.89, 0.0338040
7854.77, 0.0341540
7866.69, 0.0343290
7878.65, 0.0342850
7890.64, 0.0340660
7902.67, 0.0336290
7914.74, 0.0328840
7926.84, 0.0320520
7938.98, 0.0311330
7951.16, 0.0300380
7963.37, 0.0289430
7975.62, 0.0278920
7987.91, 0.0267980
8000.24, 0.0257030
8012.6, 0.0246960
8025.01, 0.0238200
8037.45, 0.0231630
8049.93, 0.0227690
8062.45, 0.0227260
8075.01, 0.0229880
8087.61, 0.0236450
8100.24, 0.0244770
8112.91, 0.0253530
8125.63, 0.0260970
8138.39, 0.0265790
8151.18, 0.0267540
8164.02, 0.0267100
8176.9, 0.0264470
8189.81, 0.0260530
8202.77, 0.0256590
8215.77, 0.0250460
8228.82, 0.0243460
8241.9, 0.0237760
8255.02, 0.0232070
8268.19, 0.0225500
8281.39, 0.0218940
8294.65, 0.0212370
8307.94, 0.0205800
8321.28, 0.0200110
8334.66, 0.0193540
8348.08, 0.0186100
8361.54, 0.0179530
8375.05, 0.0172960
8388.6, 0.0166390
8402.2, 0.0160700
8415.84, 0.0155880
8429.52, 0.0151500
8443.25, 0.0148880
8457.02, 0.0148000
8470.84, 0.0148440
8484.7, 0.0150190
8498.61, 0.0154130
8512.57, 0.0158510
8526.57, 0.0165080
8540.62, 0.0170330
8554.71, 0.0175150
8568.85, 0.0181280
8583.04, 0.0186530
8597.27, 0.0188280
8611.55, 0.0188720
8625.88, 0.0188720
8640.26, 0.0187410
8654.68, 0.0184780
8669.16, 0.0183470
8683.68, 0.0182590
8698.25, 0.0181720
8712.87, 0.0180840
8727.53, 0.0182150
8742.25, 0.0185660
8757.02, 0.0187850
8771.83, 0.0190040
8786.7, 0.0194410
8801.62, 0.0197040
8816.59, 0.0198360
8831.61, 0.0199670
8846.68, 0.0200110
8861.8, 0.0199670
8876.97, 0.0199670
8892.2, 0.0200550
8907.48, 0.0202730
8922.81, 0.0203610
8938.2, 0.0202730
8953.63, 0.0200980
8969.13, 0.0198790
8984.67, 0.0196170
9000.27, 0.0193100
9015.92, 0.0187850
9031.63, 0.0183030
9047.39, 0.0177340
9063.21, 0.0171210
9079.08, 0.0165950
9095.01, 0.0161140
9111.0, 0.0156320
9127.04, 0.0152380
9143.13, 0.0150190
9159.28, 0.0150190
9175.49, 0.0151940
9191.76, 0.0157200
9208.09, 0.0165520
9224.47, 0.0175590
9240.92, 0.0187410
9257.42, 0.0200980
9273.98, 0.0214120
9290.6, 0.0227690
9307.28, 0.0241700
9324.02, 0.0256590
9340.82, 0.0272360
9357.68, 0.0288560
9374.6, 0.0306510
9391.58, 0.0327970
9408.62, 0.0352490
9425.73, 0.0379630
9442.9, 0.0407220
9460.13, 0.0435240
9477.42, 0.0460640
9494.78, 0.0480340
9512.2, 0.0490850
9529.69, 0.0491290
9547.24, 0.0484290
9564.86, 0.0471150
9582.54, 0.0454070
9600.28, 0.0435240
9618.1, 0.0419040
9635.97, 0.0405910
9653.92, 0.0394520
9671.93, 0.0385760
9690.01, 0.0378320
9708.16, 0.0372190
9726.37, 0.0368690
9744.65, 0.0366060
9763.0, 0.0362560
9781.43, 0.0360810
9799.92, 0.0360810
9818.48, 0.0361680
9837.1, 0.0363000
9855.8, 0.0367370
9874.58, 0.0374380
9893.42, 0.0383580
9912.34, 0.0393650
9931.33, 0.0405470
9950.39, 0.0421230
9969.52, 0.0438310
9988.74, 0.0455820
10008.0, 0.0472900
10027.4, 0.0489980
10046.8, 0.0506180
10066.3, 0.0519750
10085.9, 0.0531140
10105.6, 0.0540770
10125.3, 0.0549530
10145.1, 0.0559160
10165.0, 0.0570110
10185.0, 0.0581490
10205.0, 0.0595500
10225.2, 0.0615210
10245.4, 0.0641040
10265.7, 0.0672570
10286.0, 0.0710230
10306.5, 0.0750950
10327.0, 0.0792110
10347.6, 0.0831960
10368.3, 0.0867860
10389.1, 0.0899830
10409.9, 0.0927410
10430.9, 0.0949300
10451.9, 0.0963750
10473.0, 0.0972510
10494.2, 0.0977770
10515.5, 0.0979080
10536.9, 0.0976450
10558.4, 0.0972510
10579.9, 0.0965940
10601.5, 0.0955000
10623.3, 0.0941860
10645.1, 0.0927410
10667.0, 0.0912960
10689.0, 0.0899390
10711.1, 0.0888000
10733.2, 0.0886250
10755.5, 0.0894570
10777.9, 0.0912520
10800.3, 0.0937920
10822.9, 0.0965510
10845.5, 0.0988710
10868.2, 0.100360
10891.1, 0.101148
10914.0, 0.101236
10937.0, 0.100448
10960.2, 0.0993090
10983.4, 0.0979080
11006.7, 0.0962880
11030.1, 0.0945800
11053.6, 0.0930040
11077.3, 0.0915590
11101.0, 0.0900260
11124.8, 0.0884500
11148.7, 0.0867860
11172.7, 0.0850350
11196.9, 0.0834140
11221.1, 0.0817940
11245.4, 0.0802180
11269.9, 0.0785540
11294.4, 0.0768900
11319.1, 0.0754010
11343.9, 0.0742630
11368.8, 0.0731240
11393.7, 0.0720300
11418.8, 0.0712420
11444.0, 0.0707600
11469.4, 0.0704970
11494.8, 0.0702780
11520.3, 0.0702780
11546.0, 0.0702780
11571.8, 0.0701910
11597.7, 0.0699720
11623.7, 0.0696220
11649.8, 0.0689650
11676.0, 0.0680010
11702.4, 0.0669070
11728.9, 0.0657240
11755.5, 0.0644550
11782.2, 0.0629220
11809.0, 0.0614770
11836.0, 0.0601200
11863.0, 0.0585430
11890.3, 0.0571860
11917.6, 0.0560040
11945.0, 0.0548210
11972.6, 0.0534640
12000.4, 0.0521500
12028.2, 0.0509240
12056.2, 0.0496980
12084.3, 0.0486470
12112.5, 0.0476840
12140.9, 0.0468080
12169.4, 0.0461950
12198.0, 0.0458450
12226.8, 0.0459760
12255.7, 0.0465460
12284.7, 0.0470270
12313.9, 0.0474650
12343.2, 0.0476840
12372.7, 0.0475530
12402.3, 0.0472900
12432.0, 0.0466330
12461.9, 0.0458890
12491.9, 0.0452760
12522.1, 0.0445750
12552.4, 0.0438750
12582.9, 0.0433930
12613.5, 0.0430870
12644.3, 0.0431740
12675.2, 0.0431300
12706.3, 0.0429550
12737.5, 0.0425610
12768.9, 0.0418170
12800.4, 0.0406780
12832.1, 0.0394080
12863.9, 0.0380070
12895.9, 0.0366940
12928.1, 0.0360370
12960.4, 0.0370000
12992.9, 0.0409850
13025.5, 0.0479470
13058.3, 0.0553910
13091.3, 0.0607330
13124.4, 0.0636660
13157.8, 0.0642790
13191.2, 0.0630530
13224.9, 0.0608640
13258.7, 0.0582810
13292.7, 0.0557850
13326.9, 0.0535520
13361.2, 0.0513620
13395.7, 0.0494360
13430.4, 0.0476840
13465.3, 0.0460200
13500.4, 0.0448380
13535.7, 0.0446190
13571.1, 0.0457580
13606.7, 0.0479470
13642.5, 0.0499610
13678.5, 0.0509240
13714.7, 0.0511430
13751.1, 0.0508370
13787.6, 0.0498740
13824.4, 0.0490420
13861.4, 0.0482970
13898.5, 0.0477720
13935.9, 0.0474650
13973.5, 0.0468960
14011.2, 0.0463710
14049.2, 0.0461950
14087.4, 0.0458450
14125.8, 0.0455390
14164.3, 0.0454070
14203.2, 0.0452320
14242.2, 0.0451450
14281.4, 0.0446630
14320.9, 0.0440500
14360.5, 0.0438310
14400.4, 0.0440500
14440.5, 0.0443130
14480.9, 0.0444440
14521.4, 0.0446630
14562.2, 0.0447500
14603.3, 0.0445750
14644.5, 0.0440500
14686.0, 0.0431740
14727.7, 0.0419480
14769.7, 0.0411160
14811.9, 0.0412040
14854.3, 0.0422110
14897.0, 0.0433050
14939.9, 0.0437000
14983.1, 0.0439620
15026.5, 0.0444000
15070.2, 0.0443560
15114.2, 0.0441810
15158.3, 0.0438750
15202.8, 0.0436120
15247.5, 0.0432180
15292.5, 0.0426920
15337.7, 0.0421670
15383.2, 0.0419040
15429.0, 0.0414660
15475.1, 0.0408970
15521.4, 0.0405470
15568.0, 0.0401530
15614.9, 0.0398020
15662.1, 0.0397150
15709.6, 0.0393650
15757.3, 0.0391460
15805.4, 0.0390580
15853.7, 0.0393210
15902.3, 0.0394080
15951.2, 0.0391890
16000.5, 0.0393650
16050.0, 0.0394520
16099.8, 0.0394080
16150.0, 0.0393650
16200.5, 0.0391460
16251.3, 0.0391890
16302.4, 0.0390580
16353.8, 0.0384010
16405.5, 0.0378320
16457.6, 0.0376570
16510.0, 0.0376130
16562.8, 0.0377440
16615.9, 0.0377880
16669.3, 0.0374380
16723.1, 0.0366940
16777.2, 0.0356430
16831.7, 0.0342420
16886.5, 0.0328840
16941.7, 0.0317020
16997.2, 0.0311330
17053.1, 0.0319650
17109.4, 0.0345040
17166.1, 0.0374380
17223.1, 0.0396270
17280.5, 0.0408100
17338.3, 0.0410720
17396.5, 0.0411600
17455.1, 0.0411160
17514.0, 0.0407220
17573.4, 0.0402400
17633.2, 0.0397590
17693.4, 0.0392770
17754.0, 0.0386640
17815.0, 0.0381390
17876.4, 0.0372630
17938.3, 0.0363870
18000.5, 0.0357740
18063.3, 0.0357300
18126.4, 0.0365180
18190.0, 0.0377880
18254.1, 0.0382260
18318.6, 0.0379630
18383.5, 0.0378760
18449.0, 0.0380070
18514.9, 0.0380510
18581.2, 0.0380950
18648.0, 0.0381390
18715.4, 0.0373940
18783.2, 0.0365620
18851.5, 0.0362560
18920.3, 0.0355110
18989.6, 0.0343730
19059.4, 0.0334970
19129.7, 0.0329720
19200.6, 0.0328400
19272.0, 0.0330590
19343.9, 0.0342850
19416.3, 0.0358620
19489.3, 0.0362120
19562.8, 0.0360810
19637.0, 0.0361240
19711.6, 0.0357300
19786.8, 0.0355110
19862.6, 0.0347230
19939.0, 0.0335410
20016.0, 0.0331470
20093.6, 0.0336290
20171.8, 0.0344170
20250.6, 0.0351610
20330.0, 0.0354680
20410.0, 0.0352050
20490.7, 0.0350730
20572.0, 0.0350730
20654.0, 0.0354240
20736.6, 0.0354680
20819.9, 0.0348110
20903.8, 0.0344170
20988.5, 0.0342850
21073.8, 0.0339350
21159.8, 0.0339350
21246.5, 0.0345040
21334.0, 0.0342850
21422.1, 0.0337160
21511.0, 0.0333930
21600.7, 0.0341410
21691.0, 0.0347820
21782.1, 0.0347460
21874.0, 0.0343550
21966.7, 0.0345330
22060.2, 0.0350670
22154.5, 0.0351730
22249.6, 0.0352450
22345.5, 0.0356010
22442.2, 0.0357430
22539.8, 0.0356360
22638.2, 0.0369890
22737.5, 0.0384490
22837.7, 0.0383060
22938.7, 0.0380570
23040.7, 0.0379150
23143.5, 0.0378790
23247.3, 0.0382350
23352.1, 0.0385200
23457.7, 0.0384490
23564.4, 0.0381280
23672.0, 0.0383420
23780.5, 0.0382350
23890.1, 0.0381280
24000.7, 0.0386620
24112.3, 0.0388400
24225.0, 0.0389470
24338.7, 0.0392320
24453.5, 0.0399080
24569.4, 0.0399080
24686.4, 0.0398370
24804.5, 0.0405490
24923.8, 0.0412970
25044.2, 0.0420090
25165.8, 0.0427560
25288.6, 0.0425430
25412.5, 0.0422220
25537.7, 0.0422580
25664.1, 0.0418660
25791.8, 0.0411540
25920.8, 0.0410120
26051.1, 0.0410470
26182.6, 0.0403350
26315.5, 0.0396590
26449.8, 0.0387330
26585.4, 0.0381280
26722.5, 0.0379150
26860.9, 0.0370960
27000.8, 0.0364190
27142.1, 0.0354230
27285.0, 0.0350310
27429.4, 0.0348530
27575.3, 0.0351020
27722.7, 0.0351380
27871.8, 0.0352090
28022.4, 0.0354580
28174.7, 0.0354230
28328.7, 0.0356360
28484.4, 0.0356010
28641.7, 0.0356010
28800.9, 0.0354230
28961.8, 0.0355650
29124.5, 0.0357790
29289.0, 0.0364910
29455.4, 0.0376300
29623.8, 0.0379500
29794.0, 0.0371670
29966.3, 0.0364190
30140.5, 0.0353870
30316.7, 0.0343190
30495.1, 0.0332870
30675.5, 0.0325750
30858.1, 0.0323250
31042.8, 0.0312570
31229.8, 0.0301180
31419.1, 0.0296550
31610.7, 0.0293350
31804.6, 0.0287650
32000.9, 0.0286230
32199.7, 0.0291570
32400.9, 0.0304030
32604.8, 0.0320410
32811.1, 0.0346040
33020.1, 0.0374870
33231.8, 0.0392320
33446.2, 0.0403350
33663.4, 0.0416170
33883.4, 0.0426490
34106.3, 0.0432550
34332.1, 0.0435040
34561.0, 0.0438950
34792.9, 0.0436820
35028.0, 0.0433260
35266.3, 0.0436820
35507.8, 0.0441090
35752.7, 0.0449640
36001.0, 0.0468150
36252.8, 0.0490580
36508.1, 0.0514430
36767.0, 0.0541840
37029.7, 0.0560710
37296.1, 0.0565340
37566.3, 0.0561060
37840.5, 0.0545760
38118.8, 0.0529020
38401.2, 0.0527240
38687.8, 0.0546110
38978.6, 0.0588830
39273.9, 0.0650070
39573.7, 0.0713080
39878.1, 0.0756510
40187.3, 0.0795670
40501.2, 0.0827710
40820.0, 0.0847290
41144.0, 0.0849070
41473.2, 0.0842670
41807.6, 0.0830210
42147.5, 0.0814180
42493.0, 0.0798520
42844.2, 0.0792470
43201.2, 0.0782140
43564.3, 0.0770750
43933.5, 0.0770400
44309.0, 0.0767900
44691.0, 0.0757580
45079.6, 0.0743340
45475.0, 0.0729100
45877.5, 0.0714500
46287.1, 0.0696700
46704.2, 0.0678190
47128.7, 0.0663240
47561.1, 0.0653270
48001.5, 0.0638670
48450.1, 0.0620520
48907.2, 0.0600580
49373.0, 0.0579220
49847.7, 0.0573530
50331.5, 0.0570320
50825.0, 0.0573170
51328.2, 0.0580650
51841.5, 0.0584560
52365.1, 0.0576020
52899.4, 0.0560710
53444.8, 0.0538640
54001.5, 0.0517990
54570.1, 0.0509800
55150.6, 0.0518700
55743.6, 0.0542550
56349.5, 0.0608770
56968.7, 0.0720560
57601.7, 0.0873640
58248.9, 0.103954
58910.9, 0.115132
59588.1, 0.118265
60281.0, 0.115702
60990.2, 0.111857
61716.3, 0.110504
62459.8, 0.113601
63221.6, 0.118265
64002.1, 0.122003
64802.1, 0.124673
65622.1, 0.125706
66463.4, 0.125599
67326.6, 0.124922
68212.4, 0.122680
69121.9, 0.121469
70056.0, 0.120828
71015.7, 0.119404
72002.0, 0.116983
73016.3, 0.115381
74059.4, 0.113993
75132.7, 0.112711
76237.6, 0.110219
77375.5, 0.107158
78547.9, 0.104737
79756.3, 0.102174
81002.5, 0.0979730
82288.5, 0.0957300
83615.7, 0.0951250
84986.5, 0.0968690
86402.9, 0.105662
87867.4, 0.118763
89382.4, 0.128055
90950.5, 0.136065
92574.6, 0.140800
94257.2, 0.160523
96002.7, 0.170384
97814.1, 0.145500
99695.1, 0.140337
101650.0, 0.139091
103683.0, 0.136065
105799.0, 0.135567
108003.0, 0.137205
110301.0, 0.135923
112699.0, 0.135140
115204.0, 0.132185
117822.0, 0.132114
120562.0, 0.133217
123433.0, 0.134214
126443.0, 0.137347
129604.0, 0.139661
132926.0, 0.136172
136424.0, 0.135389
140111.0, 0.145535
144003.0, 0.155254
148118.0, 0.157604
152474.0, 0.160203
157095.0, 0.167002
162004.0, 0.170705
167231.0, 0.168035
172805.0, 0.168035
178764.0, 0.185657
185148.0, 0.192670
192005.0, 0.170669
199390.0, 0.176187
207366.0, 0.188149
216006.0, 0.211432
