Database of Origin,USGS Spectral Database
Sample Description,See USGS database for additional info
Date Added,2017-02-22 02:49:14.243019

Data ID,USGS_top15          
Sample ID,topaz_2.22137
Mineral Name,topaz

Wavelength
221.1, 0.169225
229.1, 0.285975
236.1, 0.307679
242.1, 0.322511
248.1, 0.343813
253.6, 0.357262
258.6, 0.378545
263.6, 0.405139
268.6, 0.441571
273.1, 0.472680
277.1, 0.512610
281.1, 0.545339
285.1, 0.574914
289.1, 0.596670
293.1, 0.619363
297.1, 0.632817
301.1, 0.640461
305.1, 0.651953
309.1, 0.661394
313.1, 0.666043
317.1, 0.674160
321.1, 0.688171
325.1, 0.696216
329.1, 0.705986
333.1, 0.714521
337.1, 0.725563
341.1, 0.734229
345.1, 0.741461
349.1, 0.752984
353.1, 0.768083
357.1, 0.779480
360.6, 0.781857
363.6, 0.782589
366.6, 0.787545
369.6, 0.790240
372.6, 0.793894
375.6, 0.798402
378.6, 0.800814
381.1, 0.802656
383.1, 0.804556
385.1, 0.804081
387.1, 0.803352
389.1, 0.809060
391.1, 0.810232
393.1, 0.808724
395.1, 0.811513
397.1, 0.808286
399.1, 0.810895
401.1, 0.810927
403.1, 0.814620
405.1, 0.812685
407.1, 0.812650
409.1, 0.812731
411.1, 0.817850
412.8, 0.816116
415.8, 0.819972
418.8, 0.817848
421.8, 0.820524
424.8, 0.820413
427.8, 0.824878
430.8, 0.826643
433.8, 0.825132
436.8, 0.827692
439.8, 0.830245
442.8, 0.830840
445.8, 0.834569
448.8, 0.836386
451.3, 0.835108
453.3, 0.838967
455.3, 0.838300
457.3, 0.838329
459.3, 0.839600
461.3, 0.840092
463.3, 0.844126
465.3, 0.842683
467.3, 0.844575
469.3, 0.841888
471.3, 0.842494
473.3, 0.845207
475.3, 0.846420
477.3, 0.845549
479.3, 0.850444
481.3, 0.848315
483.3, 0.849660
485.3, 0.849629
487.3, 0.850958
489.3, 0.851786
491.3, 0.849565
493.3, 0.848926
495.3, 0.853718
497.3, 0.852177
499.3, 0.854899
501.3, 0.852031
503.3, 0.853456
505.3, 0.854094
507.3, 0.854124
509.3, 0.854726
511.3, 0.854666
513.3, 0.856613
515.3, 0.855156
517.3, 0.853067
519.3, 0.855075
521.3, 0.855162
523.3, 0.854958
525.3, 0.853606
527.3, 0.854190
529.3, 0.856162
531.3, 0.854072
533.3, 0.854068
535.3, 0.854649
537.3, 0.854559
539.3, 0.855156
541.3, 0.853824
543.3, 0.853738
545.3, 0.855001
547.3, 0.855111
549.3, 0.857072
551.3, 0.856492
553.3, 0.857870
555.3, 0.856592
557.3, 0.857288
559.3, 0.855954
561.3, 0.858761
563.3, 0.858043
565.3, 0.855940
567.3, 0.856564
569.3, 0.856468
571.3, 0.856453
573.3, 0.858555
575.3, 0.856452
577.3, 0.856280
579.3, 0.857588
581.3, 0.858204
583.3, 0.859413
585.3, 0.859512
587.3, 0.858019
589.3, 0.862230
591.3, 0.861560
593.3, 0.866373
595.3, 0.865842
597.3, 0.864453
599.3, 0.863750
601.1, 0.864439
602.7, 0.865921
604.3, 0.865303
605.9, 0.866123
607.5, 0.867499
609.1, 0.866795
610.7, 0.867600
612.3, 0.868996
613.9, 0.867592
615.5, 0.869690
617.1, 0.869687
618.7, 0.869098
620.3, 0.871260
621.9, 0.870476
623.5, 0.870562
625.1, 0.865703
626.7, 0.867784
628.3, 0.869852
629.9, 0.869765
631.7, 0.867757
633.7, 0.867761
635.7, 0.870554
637.7, 0.869773
639.7, 0.871084
641.7, 0.872483
643.7, 0.870467
645.7, 0.872471
647.7, 0.873065
649.7, 0.872383
651.7, 0.872383
653.7, 0.874478
655.7, 0.872995
657.7, 0.875701
659.7, 0.872914
661.7, 0.872982
663.7, 0.875703
665.7, 0.873525
667.7, 0.876329
670.2, 0.876921
673.2, 0.877486
676.2, 0.877426
679.2, 0.876078
682.2, 0.880771
685.2, 0.878708
688.2, 0.879251
691.2, 0.880405
694.2, 0.881042
697.2, 0.879461
700.2, 0.882848
702.0, 0.877360
704.0, 0.879472
706.0, 0.879920
708.0, 0.879923
710.0, 0.879049
712.0, 0.881811
714.0, 0.881030
716.0, 0.880065
718.0, 0.878640
720.0, 0.878550
722.0, 0.881329
724.0, 0.881873
726.0, 0.881798
728.0, 0.885857
730.0, 0.882976
732.0, 0.882889
734.0, 0.881379
736.0, 0.881222
738.0, 0.882569
740.0, 0.886091
742.0, 0.882320
744.0, 0.884406
746.0, 0.885683
748.0, 0.882810
750.5, 0.885613
753.5, 0.884081
756.5, 0.884643
759.5, 0.883114
762.5, 0.882960
765.5, 0.887861
768.5, 0.884880
771.5, 0.887637
774.5, 0.884642
777.5, 0.887977
781.0, 0.888630
785.0, 0.888464
789.0, 0.886839
793.0, 0.890358
797.0, 0.888650
801.5, 0.889891
806.5, 0.888251
811.5, 0.891637
816.5, 0.890599
822.0, 0.890210
828.0, 0.888990
835.0, 0.888030
843.0, 0.890518
851.0, 0.901406
859.0, 0.905876
871.0, 0.909406
883.0, 0.903089
894.0, 0.907667
904.0, 0.909796
914.0, 0.912093
924.0, 0.911220
933.0, 0.911797
941.0, 0.918035
949.0, 0.916353
957.0, 0.920931
964.0, 0.916303
970.0, 0.920921
976.0, 0.924061
982.0, 0.920788
988.0, 0.922331
994.0, 0.923904
1000.0, 0.929302
1006.0, 0.925367
1012.0, 0.923745
1018.0, 0.926078
1023.5, 0.931572
1028.5, 0.937074
1033.5, 0.932274
1038.5, 0.929085
1043.5, 0.933835
1048.5, 0.930640
1053.5, 0.928981
1058.5, 0.932959
1063.5, 0.931356
1068.5, 0.932168
1073.5, 0.933714
1078.5, 0.932074
1083.5, 0.935168
1088.5, 0.935937
1093.5, 0.934371
1098.5, 0.935164
1103.5, 0.931166
1108.5, 0.930434
1113.5, 0.938366
1118.5, 0.937535
1123.5, 0.939131
1128.5, 0.936703
1133.5, 0.937555
1138.5, 0.940691
1143.5, 0.936625
1148.5, 0.937382
1153.5, 0.938926
1158.5, 0.939591
1163.5, 0.942670
1168.5, 0.938574
1173.5, 0.937616
1178.5, 0.938299
1183.5, 0.938232
1188.5, 0.936483
1193.5, 0.938730
1198.5, 0.943408
1203.5, 0.941772
1208.5, 0.936971
1213.5, 0.936089
1218.5, 0.944928
1223.5, 0.944962
1228.5, 0.940165
1233.5, 0.939390
1238.5, 0.943343
1243.5, 0.942571
1248.5, 0.945716
1253.5, 0.949694
1258.5, 0.944830
1263.5, 0.941486
1268.5, 0.946247
1273.5, 0.940516
1278.5, 0.946835
1283.5, 0.944339
1288.5, 0.943342
1293.5, 0.944806
1298.5, 0.944730
1303.5, 0.944606
1308.5, 0.942002
1313.5, 0.945114
1318.5, 0.942585
1323.5, 0.940893
1328.5, 0.944768
1333.5, 0.943055
1338.5, 0.940510
1343.5, 0.934081
1348.5, 0.932351
1353.5, 0.933906
1358.5, 0.933873
1363.5, 0.940258
1368.5, 0.933802
1373.5, 0.934554
1378.5, 0.936158
1383.5, 0.932146
1388.5, 0.933733
1393.5, 0.925749
1398.5, 0.894423
1403.5, 0.785758
1408.5, 0.840547
1413.5, 0.911430
1418.5, 0.931689
1423.5, 0.939857
1428.5, 0.940745
1433.5, 0.940071
1438.5, 0.939391
1443.5, 0.943459
1448.5, 0.943536
1453.5, 0.943602
1458.5, 0.942779
1463.5, 0.947650
1468.5, 0.941995
1473.5, 0.945246
1478.5, 0.943589
1483.5, 0.946785
1488.5, 0.945975
1493.5, 0.948333
1498.5, 0.945085
1503.5, 0.945294
1508.5, 0.948428
1513.5, 0.944403
1518.5, 0.946828
1523.5, 0.950847
1528.5, 0.942806
1534.0, 0.945963
1540.0, 0.947550
1546.0, 0.949217
1552.0, 0.947620
1558.0, 0.949209
1564.0, 0.947644
1570.5, 0.946817
1577.5, 0.950851
1584.5, 0.954068
1591.5, 0.949996
1598.5, 0.945930
1605.5, 0.944951
1612.5, 0.950527
1619.5, 0.947172
1626.5, 0.944662
1633.5, 0.946875
1640.5, 0.946721
1647.5, 0.947368
1654.5, 0.947183
1661.5, 0.947817
1668.5, 0.946041
1676.0, 0.936213
1684.0, 0.919022
1692.0, 0.929465
1700.0, 0.937411
1708.0, 0.941449
1716.0, 0.942950
1724.0, 0.938034
1732.0, 0.936460
1740.0, 0.940486
1748.0, 0.937328
1756.0, 0.937456
1764.0, 0.943198
1772.0, 0.939293
1780.0, 0.946639
1788.0, 0.940866
1796.0, 0.945513
1805.0, 0.945858
1815.0, 0.945939
1825.0, 0.943466
1835.0, 0.945792
1845.0, 0.939371
1855.0, 0.941204
1865.0, 0.940080
1875.0, 0.938233
1885.0, 0.935737
1895.0, 0.931582
1905.0, 0.932237
1915.0, 0.932857
1925.0, 0.927684
1935.0, 0.926631
1945.0, 0.927315
1955.0, 0.925655
1965.0, 0.926425
1975.0, 0.930334
1985.0, 0.933767
1995.0, 0.929349
2005.0, 0.930594
2015.0, 0.924530
2025.0, 0.930304
2035.0, 0.926415
2045.0, 0.919475
2055.0, 0.901095
2065.0, 0.864951
2075.0, 0.719512
2085.0, 0.532443
2095.0, 0.747747
2105.0, 0.855796
2115.0, 0.888492
2125.0, 0.898894
2135.0, 0.861959
2145.0, 0.833210
2155.0, 0.824859
2165.0, 0.849342
2175.0, 0.860880
2185.0, 0.865313
2195.0, 0.871217
2205.0, 0.855148
2215.0, 0.861008
2225.0, 0.890005
2235.0, 0.898207
2245.0, 0.909115
2255.0, 0.872384
2265.0, 0.851064
2275.0, 0.885315
2285.0, 0.877434
2295.0, 0.883942
2305.0, 0.857257
2315.0, 0.845348
2325.0, 0.818640
2335.0, 0.829148
2345.0, 0.827132
2355.0, 0.828838
2365.0, 0.814450
2375.0, 0.810799
2386.0, 0.809987
2400.0, 0.802317
2418.0, 0.783984
2440.0, 0.778568
2466.0, 0.736310
2496.0, 0.677692
2528.0, 0.589080
2560.0, 0.579585
2592.0, 0.661795
2624.0, 0.683911
2656.0, 0.722276
2688.0, 0.679752
2720.0, 0.522955
2752.0, 0.158304
2784.0, 0.411399
2816.0, 0.506387
2848.0, 0.545461
2880.0, 0.491345
2912.0, 0.517937
2944.0, 0.522738
2976.0, 0.542151
