Database of Origin, USGS Spectral Database
Sample Description, See USGS database for additional info
Date Added,2016-08-03 21:32:02.823342

Data ID,USGS_end02          
Sample ID, endellite_gds16.7391
Mineral Name, endellite
Material Class,Phyllosilicate

Wavelength
1364.61, 0.387362
1364.97, 0.387035
1365.33, 0.386763
1365.69, 0.386490
1366.05, 0.385728
1366.41, 0.384422
1366.77, 0.383169
1367.13, 0.382407
1367.49, 0.381318
1367.85, 0.380230
1368.21, 0.378542
1368.57, 0.377344
1368.93, 0.376854
1369.3, 0.376418
1369.66, 0.375493
1370.02, 0.374186
1370.38, 0.372553
1370.74, 0.370811
1371.11, 0.369722
1371.47, 0.368524
1371.83, 0.367381
1372.19, 0.366129
1372.56, 0.364278
1372.92, 0.361991
1373.29, 0.360303
1373.65, 0.358779
1374.01, 0.356656
1374.38, 0.354532
1374.74, 0.352355
1375.11, 0.350014
1375.47, 0.347727
1375.84, 0.345277
1376.2, 0.342664
1376.57, 0.339887
1376.93, 0.337546
1377.3, 0.334497
1377.67, 0.331449
1378.03, 0.328509
1378.4, 0.325351
1378.76, 0.322302
1379.13, 0.319253
1379.5, 0.315932
1379.87, 0.312666
1380.23, 0.308583
1380.6, 0.305044
1380.97, 0.302594
1381.34, 0.300144
1381.7, 0.296605
1382.07, 0.292957
1382.44, 0.290072
1382.81, 0.287840
1383.18, 0.285662
1383.55, 0.283484
1383.92, 0.281416
1384.29, 0.279401
1384.66, 0.277332
1385.03, 0.275372
1385.4, 0.273739
1385.77, 0.272541
1386.14, 0.271888
1386.51, 0.271452
1386.88, 0.270636
1387.25, 0.269710
1387.62, 0.269111
1387.99, 0.269166
1388.36, 0.269275
1388.74, 0.269438
1389.11, 0.269983
1389.48, 0.270418
1389.85, 0.270581
1390.23, 0.270854
1390.6, 0.271725
1390.97, 0.272922
1391.35, 0.274066
1391.72, 0.274665
1392.09, 0.275318
1392.47, 0.276189
1392.84, 0.277605
1393.21, 0.279129
1393.59, 0.279891
1393.96, 0.280817
1394.34, 0.281960
1394.71, 0.282831
1395.09, 0.284029
1395.46, 0.285608
1395.84, 0.286479
1396.22, 0.286914
1396.59, 0.287840
1396.97, 0.289310
1397.35, 0.290508
1397.72, 0.291161
1398.1, 0.291814
1398.48, 0.293066
1398.85, 0.293447
1399.23, 0.293665
1399.61, 0.294591
1399.99, 0.295516
1400.37, 0.295843
1400.74, 0.296170
1401.12, 0.296877
1401.5, 0.297095
1401.88, 0.297095
1402.26, 0.297258
1402.64, 0.297531
1403.02, 0.297585
1403.4, 0.297367
1403.78, 0.296823
1404.16, 0.295625
1404.54, 0.294373
1404.92, 0.293502
1405.3, 0.292522
1405.68, 0.291052
1406.06, 0.289255
1406.44, 0.286805
1406.83, 0.283648
1407.21, 0.280436
1407.59, 0.277115
1407.97, 0.273467
1408.35, 0.269874
1408.74, 0.265137
1409.12, 0.260346
1409.5, 0.256045
1409.89, 0.251853
1410.27, 0.247824
1410.65, 0.244449
1411.04, 0.241563
1411.42, 0.239331
1411.81, 0.237807
1412.19, 0.237153
1412.58, 0.237153
1412.96, 0.237970
1413.35, 0.239767
1413.73, 0.241999
1414.12, 0.244884
1414.5, 0.249076
1414.89, 0.254249
1415.28, 0.259747
1415.66, 0.265192
1416.05, 0.271126
1416.44, 0.276951
1416.82, 0.282613
1417.21, 0.287949
1417.6, 0.293230
1417.98, 0.297966
1418.37, 0.302267
1418.76, 0.305860
1419.15, 0.309236
1419.54, 0.312611
1419.93, 0.315334
1420.32, 0.318165
1420.71, 0.321213
1421.09, 0.323609
1421.48, 0.325242
1421.88, 0.326984
1422.27, 0.328781
1422.66, 0.330305
1423.05, 0.331449
1423.44, 0.332592
1423.83, 0.334280
1424.22, 0.335913
1424.61, 0.337056
1425.0, 0.338145
1425.39, 0.339234
1425.78, 0.340160
1426.18, 0.341466
1426.57, 0.342773
1426.96, 0.344188
1427.36, 0.344950
1427.75, 0.345876
1428.14, 0.347019
1428.54, 0.348054
1428.93, 0.348653
1429.32, 0.348979
1429.72, 0.349796
1430.11, 0.351211
1430.51, 0.351974
1430.9, 0.352191
1431.3, 0.352681
1431.69, 0.353879
1432.09, 0.354478
1432.48, 0.355131
1432.88, 0.355839
1433.28, 0.356111
1433.67, 0.356710
1434.07, 0.357255
1434.46, 0.358071
1434.86, 0.358833
1435.26, 0.359323
1435.66, 0.359813
1436.05, 0.359977
1436.45, 0.360576
1436.85, 0.361447
1437.25, 0.361991
1437.65, 0.362372
1438.05, 0.362808
1438.44, 0.363026
1438.84, 0.363570
1439.24, 0.363515
1439.64, 0.363951
1440.04, 0.364441
1440.44, 0.364495
1440.84, 0.364604
1441.24, 0.365475
1441.65, 0.365693
1442.05, 0.365857
1442.45, 0.365693
1442.85, 0.366183
1443.25, 0.366564
1443.65, 0.366891
1444.05, 0.367109
1444.46, 0.367327
1444.86, 0.367653
1445.26, 0.367708
1445.67, 0.367980
1446.07, 0.368252
1446.47, 0.368361
1446.88, 0.368361
1447.28, 0.368688
1447.68, 0.369123
1448.09, 0.369395
1448.49, 0.369450
1448.9, 0.369450
1449.3, 0.369613
1449.71, 0.369668
1450.11, 0.369722
1450.52, 0.370049
1450.93, 0.370321
1451.33, 0.370702
1451.74, 0.370920
1452.14, 0.370702
1452.55, 0.370484
1452.96, 0.370593
1453.36, 0.370756
1453.77, 0.370702
1454.18, 0.370865
1454.59, 0.371029
1455.0, 0.371301
1455.41, 0.371628
1455.81, 0.371573
1456.22, 0.371628
1456.63, 0.371845
1457.04, 0.371900
1457.45, 0.371573
1457.86, 0.371519
1458.27, 0.371355
1458.68, 0.371246
1459.09, 0.371519
1459.5, 0.371573
1459.91, 0.371464
1460.32, 0.371519
1460.74, 0.371573
1461.15, 0.371682
1461.56, 0.371628
1461.97, 0.371573
1462.39, 0.371791
1462.8, 0.371845
1463.21, 0.371791
1463.62, 0.371736
1464.04, 0.371682
1464.45, 0.371682
1464.86, 0.371573
1465.28, 0.371573
1465.69, 0.371464
1466.11, 0.371628
1466.52, 0.371900
1466.94, 0.372172
1467.35, 0.372117
1467.77, 0.372009
1468.18, 0.372009
1468.6, 0.372009
1469.02, 0.372281
1469.43, 0.372499
1469.85, 0.372607
1470.27, 0.372716
1470.68, 0.372771
1471.1, 0.372880
1471.52, 0.372989
1471.94, 0.373261
1472.35, 0.373261
1472.77, 0.373315
1473.19, 0.373533
1473.61, 0.373533
1474.03, 0.373479
1474.45, 0.373587
1474.87, 0.373805
1475.29, 0.374132
1475.71, 0.374295
1476.13, 0.374295
1476.55, 0.374350
1476.97, 0.374731
1477.39, 0.374840
1477.81, 0.375003
1478.23, 0.374894
1478.65, 0.375112
1479.07, 0.375384
1479.5, 0.375439
1479.92, 0.375711
1480.34, 0.375929
1480.76, 0.376037
1481.19, 0.375874
1481.61, 0.376092
1482.03, 0.376255
1482.46, 0.376310
1482.88, 0.376092
1483.31, 0.376092
1483.73, 0.376364
1484.16, 0.376854
1484.58, 0.376800
1485.01, 0.376745
1485.43, 0.376963
1485.86, 0.377235
1486.28, 0.377562
1486.71, 0.377725
1487.14, 0.377507
1487.56, 0.377725
1487.99, 0.378215
1488.42, 0.378052
1488.84, 0.377888
1489.27, 0.377997
1489.7, 0.378324
1490.13, 0.378487
1490.56, 0.378596
1490.98, 0.378814
1491.41, 0.378868
1491.84, 0.378977
1492.27, 0.378705
1492.7, 0.378651
1493.13, 0.378977
1493.56, 0.379141
1493.99, 0.379304
1494.42, 0.379250
1494.85, 0.379250
1495.29, 0.379250
1495.72, 0.379358
1496.15, 0.379685
1496.58, 0.380012
1497.01, 0.380230
1497.44, 0.380284
1497.88, 0.380066
1498.31, 0.380066
1498.74, 0.380066
1499.18, 0.380175
1499.61, 0.380447
1500.04, 0.380502
1500.48, 0.380447
1500.91, 0.380393
1501.35, 0.380338
1501.78, 0.380665
1502.22, 0.381101
1502.65, 0.381101
1503.09, 0.381046
1503.53, 0.381101
1503.96, 0.381427
1504.4, 0.381645
1504.83, 0.381808
1505.27, 0.382026
1505.71, 0.382026
1506.15, 0.381645
1506.58, 0.381808
1507.02, 0.381863
1507.46, 0.382135
1507.9, 0.382244
1508.34, 0.382298
1508.78, 0.382407
1509.21, 0.382516
1509.66, 0.382625
1510.09, 0.382625
1510.53, 0.382679
1510.97, 0.382788
1511.42, 0.382952
1511.86, 0.383061
1512.3, 0.382952
1512.74, 0.382952
1513.18, 0.382952
1513.62, 0.383061
1514.06, 0.383169
1514.51, 0.383333
1514.95, 0.383551
1515.39, 0.383551
1515.83, 0.383387
1516.28, 0.383496
1516.72, 0.384040
1517.16, 0.384258
1517.61, 0.384258
1518.05, 0.384095
1518.5, 0.384095
1518.94, 0.384258
1519.39, 0.384258
1519.83, 0.384204
1520.28, 0.384204
1520.73, 0.384367
1521.17, 0.384476
1521.62, 0.384585
1522.07, 0.384639
1522.51, 0.384639
1522.96, 0.384748
1523.41, 0.384803
1523.85, 0.384803
1524.3, 0.384530
1524.75, 0.384367
1525.2, 0.384639
1525.65, 0.384748
1526.1, 0.385075
1526.55, 0.385293
1527.0, 0.385184
1527.45, 0.385129
1527.9, 0.385456
1528.35, 0.385510
1528.8, 0.385728
1529.25, 0.385728
1529.7, 0.385565
1530.15, 0.385728
1530.6, 0.385946
1531.05, 0.385892
1531.51, 0.386164
1531.96, 0.386273
1532.41, 0.386109
1532.87, 0.386109
1533.32, 0.386109
1533.77, 0.386382
1534.23, 0.386654
1534.68, 0.386599
1535.14, 0.386763
1535.59, 0.386980
1536.05, 0.387144
1536.5, 0.387144
1536.96, 0.387416
1537.41, 0.387362
1537.87, 0.387416
1538.32, 0.387470
1538.78, 0.387688
1539.24, 0.387797
1539.7, 0.387906
1540.15, 0.388233
1540.61, 0.388559
1541.07, 0.388777
1541.53, 0.388940
1541.98, 0.389267
1542.44, 0.389376
1542.9, 0.389049
1543.36, 0.388777
1543.82, 0.388831
1544.28, 0.389158
1544.74, 0.389049
1545.2, 0.389158
1545.66, 0.389485
1546.12, 0.389811
1546.59, 0.389703
1547.05, 0.389648
1547.51, 0.390029
1547.97, 0.390138
1548.43, 0.389975
1548.9, 0.389866
1549.36, 0.390084
1549.82, 0.390519
1550.29, 0.390846
1550.75, 0.391064
1551.21, 0.391064
1551.68, 0.391336
1552.14, 0.391118
1552.61, 0.391173
1553.07, 0.391445
1553.54, 0.391554
1554.0, 0.391499
1554.47, 0.391608
1554.93, 0.391989
1555.4, 0.392207
1555.87, 0.392098
1556.34, 0.392098
1556.8, 0.392207
1557.27, 0.392098
1557.74, 0.392261
1558.21, 0.392642
1558.68, 0.392588
1559.14, 0.392534
1559.61, 0.392697
1560.08, 0.392642
1560.55, 0.392642
1561.02, 0.392915
1561.49, 0.393187
1561.96, 0.393514
1562.43, 0.393677
1562.9, 0.393677
1563.38, 0.393677
1563.85, 0.393840
1564.32, 0.393840
1564.79, 0.393622
1565.26, 0.393895
1565.74, 0.394276
1566.21, 0.394330
1566.68, 0.394276
1567.16, 0.394112
1567.63, 0.394221
1568.1, 0.394602
1568.58, 0.394657
1569.05, 0.394657
1569.53, 0.394929
1570.0, 0.395256
1570.48, 0.395365
1570.96, 0.395201
1571.43, 0.395038
1571.91, 0.395038
1572.39, 0.395147
1572.86, 0.395365
1573.34, 0.395474
1573.82, 0.395365
1574.3, 0.395365
1574.77, 0.395365
1575.25, 0.395365
1575.73, 0.395528
1576.21, 0.396018
1576.69, 0.396290
1577.17, 0.396181
1577.65, 0.396399
1578.13, 0.396290
1578.61, 0.396127
1579.09, 0.396290
1579.57, 0.396453
1580.05, 0.396671
1580.54, 0.396671
1581.02, 0.396780
1581.5, 0.396889
1581.98, 0.396726
1582.47, 0.396726
1582.95, 0.396998
1583.43, 0.397325
1583.92, 0.397542
1584.4, 0.397270
1584.88, 0.397161
1585.37, 0.397270
1585.85, 0.397216
1586.34, 0.397161
1586.82, 0.397488
1587.31, 0.397651
1587.8, 0.397815
1588.28, 0.397869
1588.77, 0.398196
1589.26, 0.398250
1589.74, 0.398087
1590.23, 0.398250
1590.72, 0.398413
1591.21, 0.398413
1591.7, 0.398577
1592.19, 0.398740
1592.67, 0.398849
1593.16, 0.398686
1593.65, 0.398740
1594.14, 0.398849
1594.63, 0.398958
1595.12, 0.399176
1595.61, 0.399448
1596.11, 0.399448
1596.6, 0.399720
1597.09, 0.399775
1597.58, 0.399829
1598.08, 0.399720
1598.57, 0.399775
1599.06, 0.399992
1599.55, 0.400482
1600.05, 0.400755
1600.54, 0.400591
1601.04, 0.400319
1601.53, 0.400646
1602.03, 0.400863
1602.52, 0.400809
1603.02, 0.400755
1603.51, 0.401136
1604.01, 0.401244
1604.5, 0.401299
1605.0, 0.401462
1605.5, 0.401626
1606.0, 0.401789
1606.49, 0.402061
1606.99, 0.402116
1607.49, 0.402279
1607.99, 0.402279
1608.49, 0.402279
1608.99, 0.402442
1609.49, 0.402769
1609.99, 0.402878
1610.49, 0.402823
1610.99, 0.402769
1611.49, 0.402932
1611.99, 0.403150
1612.49, 0.403531
1612.99, 0.403694
1613.49, 0.403422
1614.0, 0.403204
1614.5, 0.403422
1615.0, 0.403477
1615.51, 0.403694
1616.01, 0.403912
1616.51, 0.403858
1617.02, 0.403803
1617.52, 0.404239
1618.03, 0.404457
1618.53, 0.404402
1619.04, 0.404457
1619.54, 0.404620
1620.05, 0.404783
1620.55, 0.405056
1621.06, 0.405328
1621.57, 0.405273
1622.08, 0.405273
1622.58, 0.405273
1623.09, 0.405273
1623.6, 0.405328
1624.11, 0.405437
1624.62, 0.405763
1625.13, 0.405927
1625.64, 0.405927
1626.15, 0.406035
1626.66, 0.406144
1627.17, 0.406253
1627.68, 0.406471
1628.19, 0.406417
1628.7, 0.406417
1629.21, 0.406525
1629.72, 0.406580
1630.24, 0.406471
1630.75, 0.406525
1631.26, 0.406634
1631.78, 0.406907
1632.29, 0.407070
1632.8, 0.407070
1633.32, 0.407015
1633.83, 0.407124
1634.35, 0.406961
1634.86, 0.407233
1635.38, 0.407451
1635.9, 0.407288
1636.41, 0.407233
1636.93, 0.407451
1637.45, 0.407832
1637.96, 0.407778
1638.48, 0.407723
1639.0, 0.407941
1639.52, 0.408050
1640.04, 0.408050
1640.56, 0.407941
1641.08, 0.407941
1641.59, 0.408268
1642.11, 0.408540
1642.63, 0.408649
1643.16, 0.408268
1643.68, 0.408213
1644.2, 0.408268
1644.72, 0.408322
1645.24, 0.408377
1645.76, 0.408485
1646.29, 0.408866
1646.81, 0.408866
1647.33, 0.408866
1647.86, 0.408866
1648.38, 0.409030
1648.9, 0.409084
1649.43, 0.409030
1649.95, 0.409084
1650.48, 0.409084
1651.0, 0.409030
1651.53, 0.409084
1652.06, 0.409139
1652.58, 0.409193
1653.11, 0.409248
1653.64, 0.409465
1654.17, 0.409520
1654.69, 0.409520
1655.22, 0.409248
1655.75, 0.409302
1656.28, 0.409465
1656.81, 0.409683
1657.34, 0.409738
1657.87, 0.409955
1658.4, 0.409955
1658.93, 0.409955
1659.46, 0.410010
1659.99, 0.410064
1660.52, 0.410173
1661.05, 0.410228
1661.59, 0.410282
1662.12, 0.410336
1662.65, 0.410500
1663.19, 0.410609
1663.72, 0.410609
1664.26, 0.410772
1664.79, 0.410881
1665.32, 0.410772
1665.86, 0.410718
1666.39, 0.410990
1666.93, 0.411153
1667.47, 0.411153
1668.0, 0.411371
1668.54, 0.411534
1669.08, 0.411643
1669.61, 0.411643
1670.15, 0.411480
1670.69, 0.411698
1671.23, 0.411970
1671.77, 0.411915
1672.31, 0.412024
1672.85, 0.412296
1673.39, 0.412351
1673.93, 0.412188
1674.47, 0.412188
1675.01, 0.412405
1675.55, 0.412732
1676.09, 0.412786
1676.64, 0.412569
1677.18, 0.412623
1677.72, 0.412732
1678.26, 0.412841
1678.81, 0.413059
1679.35, 0.413113
1679.89, 0.413276
1680.44, 0.413549
1680.98, 0.413494
1681.53, 0.413331
1682.07, 0.413331
1682.62, 0.413549
1683.17, 0.413875
1683.71, 0.414039
1684.26, 0.413984
1684.81, 0.413712
1685.36, 0.413712
1685.9, 0.413875
1686.45, 0.413875
1687.0, 0.413821
1687.55, 0.413930
1688.1, 0.414202
1688.65, 0.414256
1689.2, 0.414365
1689.75, 0.414529
1690.3, 0.414583
1690.85, 0.414420
1691.41, 0.414692
1691.96, 0.415073
1692.51, 0.415182
1693.06, 0.415127
1693.61, 0.415073
1694.17, 0.415127
1694.72, 0.415127
1695.28, 0.415291
1695.83, 0.415400
1696.39, 0.415182
1696.94, 0.415073
1697.5, 0.415291
1698.05, 0.415345
1698.61, 0.415291
1699.17, 0.415454
1699.72, 0.415617
1700.28, 0.415672
1700.84, 0.415563
1701.4, 0.415617
1701.95, 0.415617
1702.51, 0.415509
1703.07, 0.415672
1703.63, 0.415944
1704.19, 0.415835
1704.75, 0.415835
1705.31, 0.415672
1705.88, 0.415672
1706.44, 0.415781
1707.0, 0.415781
1707.56, 0.415617
1708.12, 0.415726
1708.69, 0.415617
1709.25, 0.415563
1709.81, 0.415509
1710.38, 0.415454
1710.94, 0.415400
1711.51, 0.415726
1712.07, 0.415835
1712.64, 0.415835
1713.2, 0.415781
1713.77, 0.415672
1714.34, 0.415617
1714.9, 0.415509
1715.47, 0.415509
1716.04, 0.415835
1716.61, 0.415563
1717.18, 0.415509
1717.74, 0.415781
1718.31, 0.415672
1718.88, 0.415563
1719.45, 0.415454
1720.02, 0.415563
1720.59, 0.415563
1721.17, 0.415454
1721.74, 0.415454
1722.31, 0.415563
1722.88, 0.415563
1723.45, 0.415563
1724.03, 0.415454
1724.6, 0.415345
1725.18, 0.415509
1725.75, 0.415617
1726.33, 0.415563
1726.9, 0.415454
1727.48, 0.415509
1728.05, 0.415291
1728.63, 0.415345
1729.2, 0.415400
1729.78, 0.415182
1730.36, 0.415127
1730.94, 0.415345
1731.51, 0.415400
1732.09, 0.415563
1732.67, 0.415509
1733.25, 0.415291
1733.83, 0.415236
1734.41, 0.415345
1734.99, 0.415345
1735.57, 0.415291
1736.15, 0.415236
1736.73, 0.415182
1737.32, 0.415182
1737.9, 0.415182
1738.48, 0.414964
1739.07, 0.414910
1739.65, 0.415073
1740.23, 0.415291
1740.82, 0.415291
1741.4, 0.415454
1741.99, 0.415563
1742.57, 0.415509
1743.16, 0.415291
1743.74, 0.415345
1744.33, 0.415509
1744.92, 0.415454
1745.51, 0.415454
1746.09, 0.415617
1746.68, 0.415509
1747.27, 0.415454
1747.86, 0.415509
1748.45, 0.415454
1749.04, 0.415345
1749.63, 0.415236
1750.22, 0.415291
1750.81, 0.415454
1751.4, 0.415291
1751.99, 0.415127
1752.59, 0.415127
1753.18, 0.415400
1753.77, 0.415454
1754.37, 0.415400
1754.96, 0.415291
1755.56, 0.415236
1756.15, 0.415291
1756.74, 0.415400
1757.34, 0.415182
1757.94, 0.415127
1758.53, 0.415127
1759.13, 0.415073
1759.73, 0.415073
1760.32, 0.415127
1760.92, 0.415019
1761.52, 0.414910
1762.12, 0.414855
1762.72, 0.414855
1763.32, 0.414637
1763.92, 0.414637
1764.52, 0.414801
1765.12, 0.414692
1765.72, 0.414529
1766.32, 0.414583
1766.92, 0.414474
1767.53, 0.414311
1768.13, 0.414202
1768.73, 0.414256
1769.34, 0.414202
1769.94, 0.414039
1770.55, 0.413930
1771.15, 0.413821
1771.76, 0.413657
1772.36, 0.413657
1772.97, 0.413494
1773.57, 0.413385
1774.18, 0.413494
1774.79, 0.413603
1775.4, 0.413385
1776.0, 0.413167
1776.61, 0.413113
1777.22, 0.413167
1777.83, 0.412786
1778.44, 0.412569
1779.05, 0.412514
1779.66, 0.412569
1780.27, 0.412623
1780.88, 0.412460
1781.5, 0.412242
1782.11, 0.412079
1782.72, 0.411970
1783.33, 0.411915
1783.95, 0.411589
1784.56, 0.411208
1785.18, 0.410990
1785.79, 0.410935
1786.41, 0.410935
1787.02, 0.411044
1787.64, 0.410935
1788.26, 0.410663
1788.87, 0.410391
1789.49, 0.410336
1790.11, 0.410064
1790.73, 0.409846
1791.35, 0.409955
1791.96, 0.410010
1792.58, 0.409683
1793.21, 0.409411
1793.83, 0.409248
1794.45, 0.409139
1795.07, 0.409193
1795.69, 0.409248
1796.31, 0.408866
1796.93, 0.408866
1797.56, 0.408812
1798.18, 0.408758
1798.8, 0.408540
1799.43, 0.408485
1800.05, 0.408485
1800.68, 0.408431
1801.3, 0.408431
1801.93, 0.408377
1802.56, 0.408377
1803.18, 0.408377
1803.81, 0.408268
1804.44, 0.408213
1805.07, 0.408050
1805.7, 0.407995
1806.33, 0.408050
1806.95, 0.408104
1807.58, 0.408050
1808.22, 0.407941
1808.85, 0.407723
1809.48, 0.407669
1810.11, 0.407451
1810.74, 0.407397
1811.38, 0.407614
1812.01, 0.407941
1812.64, 0.407723
1813.28, 0.407723
1813.91, 0.407669
1814.55, 0.407397
1815.18, 0.407288
1815.82, 0.407342
1816.45, 0.407288
1817.09, 0.407669
1817.73, 0.407669
1818.36, 0.407614
1819.0, 0.407560
1819.64, 0.407015
1820.28, 0.406525
1820.92, 0.406743
1821.56, 0.406852
1822.2, 0.407124
1822.84, 0.407560
1823.48, 0.407778
1824.12, 0.407669
1824.76, 0.407451
1825.41, 0.406743
1826.05, 0.406253
1826.69, 0.407015
1827.34, 0.407505
1827.98, 0.407288
1828.63, 0.407397
1829.27, 0.407288
1829.92, 0.407397
1830.56, 0.407015
1831.21, 0.406798
1831.86, 0.406961
1832.5, 0.407015
1833.15, 0.407015
1833.8, 0.407070
1834.45, 0.406689
1835.1, 0.406471
1835.75, 0.405981
1836.4, 0.405709
1837.05, 0.405709
1837.7, 0.405328
1838.35, 0.405709
1839.01, 0.405545
1839.66, 0.404620
1840.31, 0.404729
1840.96, 0.404565
1841.62, 0.403803
1842.27, 0.404130
1842.93, 0.404838
1843.58, 0.405001
1844.24, 0.405110
1844.9, 0.405437
1845.55, 0.405654
1846.21, 0.404838
1846.87, 0.404130
1847.53, 0.404620
1848.18, 0.405219
1848.84, 0.406090
1849.5, 0.406689
1850.16, 0.407015
1850.82, 0.407397
1851.48, 0.407560
1852.14, 0.407451
1852.81, 0.406961
1853.47, 0.406362
1854.13, 0.406471
1854.8, 0.407560
1855.46, 0.407832
1856.12, 0.407070
1856.79, 0.406852
1857.45, 0.407397
1858.12, 0.407614
1858.79, 0.406961
1859.45, 0.405709
1860.12, 0.405927
1860.79, 0.406417
1861.46, 0.406471
1862.12, 0.406199
1862.79, 0.406035
1863.46, 0.405600
1864.13, 0.405110
1864.8, 0.405001
1865.48, 0.404892
1866.15, 0.404402
1866.82, 0.403313
1867.49, 0.401843
1868.16, 0.401626
1868.84, 0.401734
1869.51, 0.401081
1870.19, 0.399502
1870.86, 0.398087
1871.54, 0.398305
1872.21, 0.397379
1872.89, 0.395582
1873.56, 0.395256
1874.24, 0.394984
1874.92, 0.393840
1875.6, 0.392915
1876.28, 0.391445
1876.96, 0.389866
1877.64, 0.388995
1878.32, 0.387852
1879.0, 0.386599
1879.68, 0.385456
1880.36, 0.384149
1881.04, 0.382734
1881.73, 0.381645
1882.41, 0.380447
1883.09, 0.378760
1883.78, 0.377126
1884.46, 0.376255
1885.15, 0.375330
1885.83, 0.373969
1886.52, 0.372444
1887.21, 0.371137
1887.89, 0.370158
1888.58, 0.368960
1889.27, 0.367163
1889.96, 0.365421
1890.65, 0.364441
1891.34, 0.363026
1892.03, 0.361229
1892.72, 0.359759
1893.41, 0.358071
1894.1, 0.356329
1894.79, 0.354532
1895.49, 0.352573
1896.18, 0.350612
1896.87, 0.348380
1897.57, 0.346148
1898.26, 0.343862
1898.96, 0.340976
1899.65, 0.338635
1900.35, 0.336893
1901.05, 0.335205
1901.74, 0.333300
1902.44, 0.330795
1903.14, 0.328890
1903.84, 0.327583
1904.54, 0.325623
1905.24, 0.323500
1905.94, 0.322248
1906.64, 0.321213
1907.34, 0.320179
1908.04, 0.319417
1908.75, 0.318872
1909.45, 0.318382
1910.15, 0.317783
1910.86, 0.317457
1911.56, 0.317511
1912.27, 0.317620
1912.97, 0.317620
1913.68, 0.318001
1914.39, 0.319090
1915.09, 0.319961
1915.8, 0.320778
1916.51, 0.321867
1917.22, 0.323119
1917.93, 0.324371
1918.64, 0.325405
1919.35, 0.326113
1920.06, 0.326767
1920.77, 0.328073
1921.48, 0.329815
1922.19, 0.331231
1922.91, 0.332265
1923.62, 0.333136
1924.33, 0.334280
1925.05, 0.335477
1925.76, 0.336512
1926.48, 0.337601
1927.19, 0.338581
1927.91, 0.339071
1928.63, 0.339996
1929.35, 0.341139
1930.07, 0.341902
1930.78, 0.342827
1931.5, 0.343644
1932.22, 0.344297
1932.94, 0.344896
1933.66, 0.345549
1934.39, 0.346312
1935.11, 0.347128
1935.83, 0.347618
1936.55, 0.348054
1937.28, 0.348707
1938.0, 0.349197
1938.73, 0.349741
1939.45, 0.350395
1940.18, 0.350939
1940.9, 0.351538
1941.63, 0.351919
1942.36, 0.352355
1943.09, 0.352899
1943.81, 0.353498
1944.54, 0.353879
1945.27, 0.354260
1946.0, 0.354696
1946.73, 0.355131
1947.47, 0.355512
1948.2, 0.356057
1948.93, 0.356438
1949.66, 0.356819
1950.4, 0.357146
1951.13, 0.357472
1951.86, 0.357745
1952.6, 0.358017
1953.34, 0.358343
1954.07, 0.358670
1954.81, 0.358942
1955.55, 0.359160
1956.29, 0.359541
1957.02, 0.359868
1957.76, 0.360086
1958.5, 0.360358
1959.24, 0.360630
1959.98, 0.361011
1960.72, 0.361283
1961.47, 0.361338
1962.21, 0.361501
1962.95, 0.361882
1963.7, 0.361991
1964.44, 0.362318
1965.18, 0.362644
1965.93, 0.362917
1966.67, 0.363134
1967.42, 0.363515
1968.17, 0.363570
1968.92, 0.363624
1969.66, 0.363897
1970.41, 0.364278
1971.16, 0.364495
1971.91, 0.364659
1972.66, 0.364822
1973.41, 0.365094
1974.16, 0.365312
1974.92, 0.365748
1975.67, 0.365857
1976.42, 0.366020
1977.18, 0.366401
1977.93, 0.366564
1978.69, 0.366564
1979.44, 0.366891
1980.2, 0.367381
1980.95, 0.367544
1981.71, 0.367762
1982.47, 0.367980
1983.23, 0.368034
1983.99, 0.368306
1984.74, 0.368579
1985.51, 0.368742
1986.27, 0.368960
1987.03, 0.369232
1987.79, 0.369395
1988.55, 0.369613
1989.32, 0.369668
1990.08, 0.369668
1990.84, 0.369940
1991.61, 0.370375
1992.37, 0.370648
1993.14, 0.370756
1993.9, 0.370920
1994.67, 0.371137
1995.44, 0.371301
1996.21, 0.371464
1996.98, 0.371736
1997.75, 0.371900
1998.52, 0.372009
1999.29, 0.372172
2000.06, 0.372281
2000.83, 0.372607
2001.6, 0.372825
2002.38, 0.372880
2003.15, 0.373206
2003.93, 0.373587
2004.7, 0.373642
2005.48, 0.373696
2006.25, 0.373914
2007.03, 0.374241
2007.81, 0.374459
2008.58, 0.374840
2009.36, 0.375166
2010.14, 0.375275
2010.92, 0.375384
2011.7, 0.375547
2012.48, 0.375602
2013.26, 0.375765
2014.05, 0.375983
2014.83, 0.376255
2015.61, 0.376364
2016.4, 0.376745
2017.18, 0.376800
2017.97, 0.376909
2018.75, 0.376800
2019.54, 0.376854
2020.32, 0.377017
2021.11, 0.377235
2021.9, 0.377290
2022.69, 0.377398
2023.48, 0.377507
2024.27, 0.377562
2025.06, 0.377398
2025.85, 0.377616
2026.64, 0.377834
2027.44, 0.377834
2028.23, 0.377780
2029.02, 0.377725
2029.82, 0.377671
2030.61, 0.377943
2031.41, 0.377993
2032.2, 0.378492
2033.0, 0.378542
2033.8, 0.378492
2034.6, 0.378642
2035.4, 0.378193
2036.2, 0.377693
2037.0, 0.377344
2037.8, 0.377244
2038.6, 0.377394
2039.4, 0.377643
2040.2, 0.377743
2041.01, 0.377444
2041.81, 0.377194
2042.61, 0.376345
2043.42, 0.376146
2044.22, 0.376595
2045.03, 0.376096
2045.84, 0.375596
2046.65, 0.375297
2047.46, 0.374897
2048.26, 0.374648
2049.07, 0.374448
2049.88, 0.373899
2050.69, 0.373899
2051.51, 0.373749
2052.32, 0.373499
2053.13, 0.373050
2053.94, 0.372401
2054.76, 0.372251
2055.57, 0.372701
2056.39, 0.372301
2057.2, 0.371203
2058.02, 0.370803
2058.84, 0.370654
2059.66, 0.370304
2060.48, 0.369455
2061.29, 0.369006
2062.11, 0.368856
2062.94, 0.368507
2063.76, 0.368307
2064.58, 0.368407
2065.4, 0.367908
2066.22, 0.367708
2067.05, 0.367059
2067.87, 0.366460
2068.7, 0.366310
2069.52, 0.366110
2070.35, 0.365461
2071.18, 0.364613
2072.0, 0.364013
2072.83, 0.363764
2073.66, 0.363614
2074.49, 0.363165
2075.32, 0.362516
2076.15, 0.361917
2076.98, 0.362216
2077.82, 0.362266
2078.65, 0.361417
2079.48, 0.360718
2080.32, 0.359969
2081.15, 0.358971
2081.99, 0.358272
2082.83, 0.358272
2083.66, 0.358871
2084.5, 0.358372
2085.34, 0.357423
2086.18, 0.356824
2087.02, 0.356524
2087.86, 0.356075
2088.7, 0.355476
2089.54, 0.355276
2090.39, 0.355127
2091.23, 0.354677
2092.07, 0.354477
2092.92, 0.353978
2093.76, 0.353529
2094.61, 0.353529
2095.45, 0.353179
2096.3, 0.352930
2097.15, 0.352331
2098.0, 0.351332
2098.85, 0.350733
2099.7, 0.349834
2100.55, 0.348836
2101.4, 0.347787
2102.25, 0.346639
2103.1, 0.345740
2103.96, 0.344792
2104.81, 0.343494
2105.67, 0.342146
2106.52, 0.340898
2107.38, 0.339999
2108.24, 0.339599
2109.09, 0.338950
2109.95, 0.338251
2110.81, 0.337852
2111.67, 0.336554
2112.53, 0.335905
2113.39, 0.335855
2114.25, 0.335256
2115.12, 0.334707
2115.98, 0.334307
2116.84, 0.333558
2117.71, 0.333209
2118.58, 0.332710
2119.44, 0.332160
2120.31, 0.331811
2121.18, 0.331511
2122.04, 0.330563
2122.91, 0.329914
2123.78, 0.329464
2124.65, 0.328566
2125.52, 0.328266
2126.4, 0.327717
2127.27, 0.326469
2128.14, 0.325320
2129.02, 0.324572
2129.89, 0.323873
2130.77, 0.322325
2131.64, 0.320827
2132.52, 0.320028
2133.4, 0.319180
2134.27, 0.317832
2135.15, 0.316334
2136.03, 0.314786
2136.91, 0.312939
2137.79, 0.310942
2138.68, 0.308445
2139.56, 0.306049
2140.44, 0.304002
2141.33, 0.302205
2142.21, 0.299558
2143.1, 0.296962
2143.99, 0.294766
2144.87, 0.292369
2145.76, 0.289523
2146.65, 0.286428
2147.54, 0.283632
2148.43, 0.280237
2149.32, 0.276642
2150.21, 0.273597
2151.1, 0.270801
2151.99, 0.267705
2152.89, 0.264560
2153.78, 0.261365
2154.68, 0.258369
2155.57, 0.255473
2156.47, 0.252877
2157.37, 0.250830
2158.27, 0.248783
2159.16, 0.246337
2160.06, 0.244240
2160.96, 0.242493
2161.86, 0.240845
2162.77, 0.238848
2163.67, 0.237350
2164.57, 0.236551
2165.48, 0.235753
2166.38, 0.234554
2167.29, 0.233905
2168.2, 0.233007
2169.1, 0.232557
2170.01, 0.232557
2170.92, 0.232507
2171.83, 0.232158
2172.74, 0.231858
2173.65, 0.231509
2174.56, 0.231559
2175.47, 0.231409
2176.39, 0.230810
2177.3, 0.230311
2178.22, 0.229761
2179.13, 0.229362
2180.05, 0.229212
2180.96, 0.228264
2181.88, 0.227115
2182.8, 0.225967
2183.72, 0.224569
2184.64, 0.223271
2185.56, 0.221623
2186.48, 0.219776
2187.41, 0.217729
2188.33, 0.216082
2189.25, 0.214384
2190.18, 0.212337
2191.1, 0.209741
2192.03, 0.206995
2192.96, 0.204848
2193.89, 0.202452
2194.82, 0.199855
2195.74, 0.196960
2196.68, 0.193914
2197.61, 0.190569
2198.54, 0.187124
2199.47, 0.182880
2200.4, 0.178936
2201.34, 0.174992
2202.28, 0.171048
2203.21, 0.167853
2204.15, 0.165506
2205.08, 0.163159
2206.02, 0.161662
2206.96, 0.161662
2207.9, 0.163159
2208.84, 0.165756
2209.78, 0.169850
2210.73, 0.174992
2211.67, 0.180734
2212.61, 0.187124
2213.56, 0.193964
2214.5, 0.200554
2215.45, 0.206995
2216.4, 0.213186
2217.35, 0.218678
2218.3, 0.223870
2219.24, 0.228963
2220.2, 0.233406
2221.15, 0.237200
2222.1, 0.240845
2223.05, 0.244190
2224.0, 0.247335
2224.96, 0.250031
2225.91, 0.252528
2226.87, 0.254625
2227.83, 0.256622
2228.79, 0.258419
2229.74, 0.260316
2230.7, 0.262014
2231.66, 0.263212
2232.63, 0.263911
2233.59, 0.264860
2234.55, 0.265658
2235.51, 0.266657
2236.48, 0.267156
2237.44, 0.267805
2238.41, 0.268754
2239.38, 0.269702
2240.34, 0.270651
2241.31, 0.271899
2242.28, 0.273347
2243.25, 0.273896
2244.22, 0.274246
2245.19, 0.274995
2246.17, 0.275843
2247.14, 0.276642
2248.12, 0.277241
2249.09, 0.277791
2250.07, 0.278090
2251.04, 0.277890
2252.02, 0.277890
2253.0, 0.278390
2253.98, 0.278589
2254.96, 0.278440
2255.94, 0.278789
2256.92, 0.279139
2257.91, 0.279238
2258.89, 0.279288
2259.88, 0.279588
2260.86, 0.279588
2261.85, 0.279588
2262.83, 0.279688
2263.82, 0.279438
2264.81, 0.279588
2265.8, 0.279188
2266.79, 0.278889
2267.78, 0.278739
2268.78, 0.278639
2269.77, 0.278190
2270.76, 0.277391
2271.76, 0.276892
2272.75, 0.276492
2273.75, 0.275793
2274.75, 0.275045
2275.75, 0.274795
2276.75, 0.274346
2277.75, 0.273747
2278.75, 0.273097
2279.75, 0.272349
2280.75, 0.271300
2281.76, 0.270352
2282.76, 0.269902
2283.77, 0.269253
2284.77, 0.268554
2285.78, 0.267805
2286.79, 0.266757
2287.8, 0.265908
2288.81, 0.265059
2289.82, 0.263861
2290.83, 0.262912
2291.84, 0.261914
2292.86, 0.260666
2293.87, 0.259717
2294.89, 0.258769
2295.91, 0.257620
2296.92, 0.256572
2297.94, 0.255274
2298.96, 0.254026
2299.98, 0.252628
2301.0, 0.251180
2302.02, 0.249582
2303.04, 0.248334
2304.07, 0.247086
2305.09, 0.245538
2306.12, 0.244290
2307.15, 0.243142
2308.17, 0.241993
2309.2, 0.241194
2310.23, 0.240396
2311.26, 0.239547
2312.29, 0.238498
2313.32, 0.237700
2314.35, 0.237300
2315.39, 0.237001
2316.42, 0.236651
2317.46, 0.236102
2318.5, 0.235802
2319.53, 0.235453
2320.57, 0.234904
2321.61, 0.234454
2322.65, 0.234155
2323.69, 0.233456
2324.73, 0.233007
2325.78, 0.232757
2326.82, 0.232507
2327.86, 0.232607
2328.91, 0.232807
2329.96, 0.232457
2331.01, 0.232008
2332.05, 0.231908
2333.1, 0.231708
2334.15, 0.231159
2335.21, 0.230660
2336.26, 0.230410
2337.31, 0.229961
2338.36, 0.228913
2339.42, 0.227864
2340.48, 0.226866
2341.53, 0.225867
2342.59, 0.224719
2343.65, 0.223521
2344.71, 0.222372
2345.77, 0.221324
2346.83, 0.220026
2347.9, 0.218728
2348.96, 0.217929
2350.02, 0.217280
2351.09, 0.216481
2352.16, 0.215682
2353.23, 0.215183
2354.29, 0.215233
2355.36, 0.215233
2356.43, 0.215183
2357.51, 0.215083
2358.58, 0.215283
2359.65, 0.215782
2360.73, 0.215832
2361.8, 0.215582
2362.88, 0.215482
2363.96, 0.215582
2365.03, 0.215632
2366.11, 0.215283
2367.19, 0.214783
2368.27, 0.213935
2369.36, 0.212936
2370.44, 0.211888
2371.53, 0.210839
2372.61, 0.209491
2373.7, 0.207894
2374.78, 0.206645
2375.87, 0.205347
2376.96, 0.203800
2378.05, 0.202551
2379.14, 0.201653
2380.24, 0.200554
2381.33, 0.199606
2382.42, 0.198907
2383.52, 0.198258
2384.61, 0.197759
2385.71, 0.197908
2386.81, 0.197808
2387.91, 0.197609
2389.01, 0.197609
2390.11, 0.197609
2391.22, 0.197659
2392.32, 0.198008
2393.42, 0.198557
2394.53, 0.198757
2395.64, 0.198757
2396.74, 0.198957
2397.85, 0.199356
2398.96, 0.199656
2400.07, 0.199706
2401.18, 0.199805
2402.3, 0.199855
2403.41, 0.199556
2404.52, 0.199306
2405.64, 0.199057
2406.76, 0.198757
2407.88, 0.198657
2408.99, 0.198258
2410.11, 0.197659
2411.23, 0.196910
2412.36, 0.196111
2413.48, 0.195362
2414.6, 0.195013
2415.73, 0.194463
2416.85, 0.193465
2417.98, 0.192816
2419.11, 0.192117
2420.24, 0.191118
2421.37, 0.190519
2422.5, 0.190020
2423.64, 0.189321
2424.77, 0.188472
2425.9, 0.187623
2427.04, 0.186875
2428.18, 0.185876
2429.31, 0.184478
2430.45, 0.183430
2431.59, 0.183080
2432.73, 0.182331
2433.88, 0.181033
2435.02, 0.180234
2436.16, 0.179735
2437.31, 0.178936
2438.45, 0.178387
2439.6, 0.177838
2440.75, 0.177488
2441.9, 0.177239
2443.05, 0.176839
2444.2, 0.176739
2445.35, 0.176839
2446.51, 0.176390
2447.67, 0.176140
2448.82, 0.175941
2449.98, 0.175441
2451.14, 0.175092
2452.3, 0.174892
2453.46, 0.174792
2454.62, 0.174543
2455.78, 0.174193
2456.94, 0.174043
2458.11, 0.173644
2459.28, 0.173045
2460.44, 0.172596
2461.61, 0.172246
2462.78, 0.171747
2463.95, 0.171248
2465.12, 0.170449
2466.3, 0.169850
2467.47, 0.169600
2468.65, 0.169101
2469.82, 0.168152
2471.0, 0.167653
2472.18, 0.167104
2473.36, 0.166255
2474.54, 0.165456
2475.72, 0.164807
2476.9, 0.163958
2478.08, 0.162910
2479.27, 0.162261
2480.46, 0.161811
2481.64, 0.161162
2482.83, 0.160264
2484.02, 0.159665
2485.21, 0.159265
2486.4, 0.158766
2487.6, 0.158566
2488.79, 0.158516
2489.99, 0.157917
2491.18, 0.157418
2492.38, 0.157268
2493.58, 0.156969
2494.78, 0.156619
2495.98, 0.156320
2497.18, 0.156120
2498.39, 0.155621
2499.59, 0.155121
2500.8, 0.154472
2502.01, 0.154123
2503.21, 0.153873
2504.42, 0.153673
2505.63, 0.153374
2506.84, 0.152875
2508.06, 0.152325
2509.27, 0.151926
2510.49, 0.151527
2511.7, 0.150977
2512.92, 0.150328
2514.14, 0.150129
2515.36, 0.150079
2516.58, 0.149330
2517.8, 0.148531
2519.03, 0.148132
2520.25, 0.147732
2521.48, 0.147383
2522.7, 0.146983
2523.93, 0.146384
2525.16, 0.145985
2526.39, 0.145635
2527.62, 0.145286
2528.86, 0.144886
2530.09, 0.144237
2531.33, 0.143588
2532.56, 0.143039
2533.8, 0.142540
2535.04, 0.141941
2536.28, 0.141342
2537.52, 0.140942
2538.76, 0.140343
2540.01, 0.139494
2541.25, 0.138845
2542.5, 0.138196
2543.75, 0.137597
2544.99, 0.137048
2546.24, 0.136549
2547.49, 0.136149
2548.75, 0.135800
2550.0, 0.135301
2551.26, 0.134801
2552.51, 0.134202
2553.77, 0.133703
2555.03, 0.133154
2556.29, 0.132754
2557.55, 0.132305
2558.81, 0.131606
2560.08, 0.130408
2561.34, 0.129309
2562.61, 0.128461
2563.88, 0.127762
2565.14, 0.127312
2566.41, 0.126963
2567.68, 0.126214
2568.96, 0.125265
2570.23, 0.124916
2571.51, 0.124716
2572.78, 0.123768
2574.06, 0.123019
2575.34, 0.122519
2576.62, 0.121820
2577.9, 0.121721
2579.18, 0.121521
2580.47, 0.120672
2581.75, 0.119973
2583.04, 0.119124
2584.32, 0.118326
2585.61, 0.118076
2586.9, 0.117427
2588.2, 0.116728
2589.49, 0.116279
2590.78, 0.115929
2592.08, 0.115280
2593.37, 0.113333
2594.67, 0.111486
2595.97, 0.111785
2597.27, 0.112534
2598.57, 0.112434
2599.88, 0.111735
2601.18, 0.110737
2602.49, 0.109888
2603.79, 0.108890
2605.1, 0.107741
2606.41, 0.107192
2607.72, 0.107092
2609.03, 0.106493
2610.35, 0.105944
2611.66, 0.105544
2612.98, 0.104796
2614.3, 0.103897
2615.62, 0.102749
2616.94, 0.101650
2618.26, 0.101051
2619.58, 0.0996030
2620.91, 0.0987050
2622.23, 0.0988040
2623.56, 0.0982050
2624.89, 0.0970070
2626.22, 0.0953590
2627.55, 0.0944610
2628.88, 0.0936620
2630.21, 0.0921140
2631.55, 0.0914150
2632.89, 0.0906660
2634.22, 0.0895180
2635.56, 0.0885690
2636.9, 0.0876210
2638.25, 0.0866220
2639.59, 0.0856740
2640.93, 0.0845750
2642.28, 0.0831270
2643.63, 0.0817300
2644.98, 0.0805310
2646.33, 0.0791830
2647.68, 0.0779850
2649.03, 0.0768370
2650.39, 0.0751390
2651.74, 0.0731420
2653.1, 0.0716940
2654.46, 0.0704460
2655.82, 0.0689980
2657.18, 0.0673510
2658.54, 0.0656030
2659.9, 0.0639060
2661.27, 0.0621580
2662.64, 0.0605610
2664.01, 0.0585640
2665.38, 0.0562170
2666.74, 0.0544200
2668.12, 0.0529220
2669.49, 0.0508250
2670.87, 0.0485280
2672.24, 0.0469810
2673.62, 0.0450840
2675.0, 0.0428870
2676.38, 0.0404400
2677.76, 0.0382940
2679.15, 0.0361470
2680.54, 0.0338500
2681.92, 0.0316530
2683.31, 0.0292570
2684.7, 0.0268600
2686.09, 0.0243140
2687.48, 0.0218180
2688.88, 0.0196710
2690.27, 0.0176740
2691.67, 0.0159270
2693.07, 0.0142290
2694.47, 0.0127810
2695.87, 0.0116830
2697.27, 0.0107840
2698.67, 0.0102850
2700.08, 0.0101850
2701.49, 0.0102850
2702.9, 0.0105840
2704.31, 0.0111340
2705.72, 0.0117830
2707.13, 0.0120820
2708.54, 0.0120820
2709.96, 0.0123320
2711.38, 0.0126310
2712.8, 0.0127810
2714.22, 0.0131310
2715.64, 0.0134300
2717.06, 0.0133800
2718.49, 0.0134300
2719.91, 0.0136800
2721.34, 0.0138300
2722.77, 0.0140290
2724.2, 0.0141790
2725.63, 0.0142790
2727.07, 0.0143790
2728.5, 0.0145290
2729.94, 0.0146280
2731.38, 0.0147780
2732.82, 0.0148280
2734.26, 0.0146280
2735.7, 0.0144790
2737.15, 0.0144290
2738.59, 0.0144790
2740.04, 0.0142290
2741.49, 0.0142290
2742.94, 0.0142290
2744.39, 0.0141290
2745.84, 0.0139290
2747.3, 0.0135300
2748.76, 0.0130810
2750.21, 0.0127310
2751.67, 0.0126310
2753.14, 0.0126310
2754.6, 0.0127810
2756.06, 0.0131810
2757.53, 0.0137300
2759.0, 0.0145290
2760.46, 0.0152770
2761.94, 0.0158770
2763.41, 0.0168250
2764.88, 0.0178240
2766.36, 0.0183730
2767.83, 0.0191220
2769.31, 0.0197710
2770.79, 0.0200200
2772.27, 0.0203700
2773.76, 0.0208190
2775.24, 0.0213690
2776.73, 0.0218680
2778.22, 0.0221670
2779.71, 0.0225170
2781.2, 0.0231660
2782.69, 0.0235650
2784.18, 0.0239650
2785.68, 0.0243640
2787.18, 0.0246140
2788.68, 0.0250130
2790.18, 0.0255120
2791.68, 0.0259120
2793.19, 0.0262610
2794.69, 0.0267610
2796.2, 0.0270100
2797.71, 0.0272600
2799.22, 0.0275590
2800.73, 0.0277590
2802.24, 0.0276590
2803.76, 0.0276090
2805.28, 0.0275590
2806.8, 0.0274600
2808.32, 0.0272600
2809.84, 0.0271600
2811.36, 0.0271600
2812.89, 0.0269600
2814.42, 0.0269100
2815.94, 0.0271600
2817.48, 0.0273100
2819.01, 0.0275590
2820.54, 0.0279090
2822.08, 0.0283580
2823.61, 0.0286080
2825.15, 0.0288080
2826.69, 0.0290070
2828.23, 0.0291570
2829.78, 0.0293570
2831.32, 0.0296060
2832.87, 0.0297560
2834.42, 0.0299060
2835.97, 0.0301560
2837.52, 0.0303050
2839.08, 0.0304550
2840.63, 0.0307050
2842.19, 0.0310040
2843.75, 0.0310540
2845.31, 0.0311040
2846.87, 0.0313040
2848.44, 0.0315040
2850.0, 0.0316530
2851.57, 0.0317530
2853.14, 0.0319030
2854.71, 0.0319530
2856.28, 0.0320530
2857.86, 0.0323020
2859.43, 0.0325020
2861.01, 0.0327020
2862.59, 0.0329020
2864.17, 0.0329020
2865.76, 0.0330510
2867.34, 0.0329510
2868.93, 0.0330010
2870.52, 0.0333510
2872.11, 0.0335010
2873.7, 0.0335010
2875.29, 0.0335510
2876.89, 0.0336000
2878.49, 0.0337000
2880.08, 0.0338000
2881.69, 0.0337500
2883.29, 0.0338500
2884.89, 0.0340500
2886.5, 0.0340500
2888.11, 0.0342500
2889.72, 0.0344990
2891.33, 0.0345990
2892.94, 0.0346490
2894.56, 0.0347990
2896.17, 0.0348990
2897.79, 0.0348990
2899.42, 0.0348990
2901.04, 0.0349980
2902.66, 0.0350980
2904.29, 0.0351480
2905.92, 0.0353480
2907.55, 0.0355480
2909.18, 0.0357470
2910.81, 0.0357970
2912.45, 0.0357970
2914.08, 0.0358970
2915.72, 0.0360970
2917.36, 0.0363460
2919.01, 0.0365460
2920.65, 0.0366960
2922.3, 0.0367960
2923.94, 0.0370450
2925.59, 0.0371950
2927.25, 0.0372950
2928.9, 0.0374450
2930.56, 0.0374950
2932.21, 0.0375450
2933.87, 0.0379940
2935.53, 0.0380940
2937.2, 0.0382440
2938.86, 0.0382940
2940.53, 0.0382940
2942.2, 0.0383430
2943.87, 0.0386430
2945.54, 0.0388930
2947.22, 0.0392420
2948.89, 0.0393920
2950.57, 0.0392920
2952.25, 0.0392920
2953.93, 0.0394920
2955.62, 0.0395920
2957.3, 0.0398410
2958.99, 0.0399910
2960.68, 0.0401410
2962.37, 0.0403410
2964.07, 0.0405400
2965.76, 0.0407900
2967.46, 0.0408900
2969.16, 0.0409400
2970.86, 0.0410890
2972.56, 0.0411890
2974.27, 0.0412390
2975.98, 0.0414390
2977.69, 0.0417880
2979.4, 0.0420880
2981.11, 0.0423380
2982.83, 0.0425370
2984.54, 0.0426870
2986.26, 0.0426370
2987.98, 0.0427870
2989.71, 0.0430860
2991.43, 0.0432360
2993.16, 0.0433860
2994.89, 0.0436360
2996.62, 0.0439350
2998.35, 0.0440850
3000.09, 0.0442850
3001.83, 0.0444350
3003.57, 0.0444840
3005.31, 0.0446340
3007.05, 0.0447840
3008.79, 0.0449840
3010.54, 0.0451830
3012.29, 0.0454330
3014.04, 0.0455830
3015.8, 0.0458820
3017.55, 0.0459320
3019.31, 0.0459820
3021.07, 0.0461320
3022.83, 0.0464320
3024.59, 0.0467810
3026.36, 0.0469810
3028.13, 0.0472800
3029.9, 0.0474300
3031.67, 0.0475300
3033.44, 0.0476800
3035.22, 0.0477300
3037.0, 0.0478290
3038.78, 0.0480790
3040.56, 0.0482290
3042.34, 0.0483790
3044.13, 0.0486280
3045.92, 0.0487280
3047.71, 0.0489280
3049.5, 0.0490280
3051.3, 0.0492270
3053.09, 0.0492770
3054.89, 0.0494270
3056.69, 0.0496770
3058.5, 0.0498760
3060.3, 0.0497770
3062.11, 0.0499260
3063.92, 0.0502260
3065.73, 0.0503760
3067.55, 0.0504760
3069.36, 0.0506250
3071.18, 0.0507250
3073.0, 0.0508750
3074.82, 0.0511250
3076.65, 0.0512740
3078.48, 0.0514240
3080.31, 0.0516240
3082.14, 0.0517740
3083.97, 0.0519230
3085.8, 0.0521730
3087.64, 0.0525230
3089.48, 0.0526720
3091.33, 0.0528220
3093.17, 0.0530220
3095.02, 0.0532220
3096.87, 0.0535210
3098.72, 0.0538210
3100.57, 0.0539700
3102.43, 0.0541200
3104.28, 0.0542200
3106.14, 0.0545200
3108.01, 0.0549190
3109.87, 0.0551690
3111.74, 0.0554180
3113.61, 0.0556180
3115.48, 0.0559180
3117.35, 0.0561170
3119.23, 0.0564670
3121.1, 0.0567160
3122.98, 0.0570660
3124.87, 0.0574150
3126.75, 0.0576650
3128.64, 0.0578150
3130.53, 0.0581140
3132.42, 0.0585640
3134.31, 0.0589630
3136.21, 0.0592130
3138.11, 0.0595120
3140.01, 0.0599620
3141.91, 0.0603110
3143.82, 0.0605110
3145.73, 0.0608100
3147.64, 0.0610600
3149.55, 0.0612600
3151.46, 0.0616590
3153.38, 0.0621080
3155.3, 0.0624580
3157.22, 0.0627080
3159.14, 0.0630070
3161.07, 0.0633070
3163.0, 0.0636560
3164.93, 0.0640060
3166.86, 0.0642050
3168.8, 0.0644050
3170.74, 0.0647050
3172.68, 0.0652540
3174.62, 0.0657030
3176.56, 0.0659030
3178.51, 0.0662520
3180.46, 0.0667020
3182.42, 0.0670510
3184.37, 0.0673010
3186.33, 0.0675010
3188.29, 0.0677500
3190.25, 0.0681990
3192.21, 0.0685490
3194.18, 0.0689480
3196.15, 0.0692980
3198.12, 0.0694980
3200.09, 0.0697470
3202.07, 0.0701470
3204.05, 0.0706960
3206.03, 0.0710450
3208.02, 0.0712450
3210.0, 0.0715940
3211.99, 0.0719940
3213.98, 0.0722440
3215.98, 0.0724930
3217.97, 0.0728930
3219.97, 0.0731920
3221.97, 0.0734920
3223.98, 0.0739410
3225.98, 0.0743400
3227.99, 0.0746400
3230.0, 0.0750890
3232.02, 0.0753890
3234.03, 0.0756390
3236.05, 0.0759380
3238.07, 0.0763370
3240.1, 0.0765370
3242.12, 0.0767870
3244.15, 0.0772860
3246.18, 0.0777350
3248.22, 0.0781350
3250.25, 0.0784840
3252.29, 0.0788340
3254.33, 0.0792330
3256.38, 0.0795330
3258.43, 0.0797320
3260.47, 0.0799820
3262.53, 0.0804310
3264.58, 0.0808310
3266.64, 0.0813300
3268.7, 0.0817790
3270.76, 0.0820790
3272.82, 0.0823290
3274.89, 0.0825780
3276.96, 0.0828280
3279.04, 0.0831770
3281.11, 0.0835770
3283.19, 0.0839760
3285.27, 0.0842760
3287.35, 0.0845250
3289.44, 0.0849750
3291.53, 0.0854240
3293.62, 0.0857740
3295.71, 0.0860730
3297.81, 0.0865220
3299.91, 0.0869720
3302.01, 0.0873210
3304.11, 0.0877210
3306.22, 0.0881700
3308.33, 0.0885690
3310.44, 0.0888190
3312.56, 0.0890190
3314.68, 0.0895180
3316.8, 0.0899670
3318.92, 0.0903170
3321.05, 0.0907660
3323.18, 0.0912160
3325.31, 0.0916650
3327.44, 0.0920640
3329.58, 0.0924640
3331.72, 0.0929130
3333.86, 0.0933120
3336.01, 0.0937620
3338.16, 0.0942110
3340.31, 0.0946600
3342.46, 0.0951100
3344.61, 0.0955590
3346.77, 0.0959090
3348.94, 0.0961080
3351.1, 0.0965580
3353.27, 0.0969570
3355.44, 0.0973560
3357.61, 0.0976060
3359.79, 0.0979560
3361.97, 0.0982550
3364.15, 0.0986050
3366.33, 0.0990040
3368.52, 0.0993040
3370.71, 0.0996030
3372.9, 0.0999530
3375.1, 0.100302
3377.3, 0.100652
3379.5, 0.101001
3381.71, 0.101301
3383.91, 0.101800
3386.12, 0.102249
3388.34, 0.102599
3390.55, 0.103048
3392.77, 0.103398
3394.99, 0.103597
3397.22, 0.103897
3399.45, 0.104396
3401.68, 0.104646
3403.91, 0.104796
3406.15, 0.105095
3408.39, 0.105495
3410.63, 0.105944
3412.87, 0.106443
3415.12, 0.106843
3417.37, 0.107192
3419.63, 0.107741
3421.88, 0.108540
3424.14, 0.109339
3426.41, 0.110038
3428.67, 0.110787
3430.94, 0.111436
3433.21, 0.112135
3435.49, 0.112884
3437.77, 0.113483
3440.05, 0.114132
3442.33, 0.114731
3444.62, 0.115230
3446.91, 0.115679
3449.2, 0.116179
3451.5, 0.116628
3453.8, 0.117227
3456.1, 0.117677
3458.41, 0.118076
3460.72, 0.118475
3463.03, 0.119025
3465.34, 0.119574
3467.66, 0.119973
3469.98, 0.120423
3472.31, 0.120872
3474.63, 0.121371
3476.96, 0.121771
3479.3, 0.122020
3481.64, 0.122270
3483.97, 0.122769
3486.32, 0.123218
3488.66, 0.123618
3491.01, 0.123917
3493.36, 0.124167
3495.72, 0.124467
3498.08, 0.124716
3500.44, 0.124966
3502.81, 0.125465
3505.18, 0.125964
3507.55, 0.126514
3509.92, 0.127113
3512.3, 0.127662
3514.68, 0.128261
3517.06, 0.128710
3519.45, 0.129210
3521.84, 0.129859
3524.24, 0.130458
3526.64, 0.131007
3529.04, 0.131556
3531.44, 0.132055
3533.85, 0.132555
3536.26, 0.133104
3538.67, 0.133653
3541.09, 0.134102
3543.51, 0.134552
3545.93, 0.134901
3548.36, 0.135151
3550.79, 0.135400
3553.22, 0.135600
3555.66, 0.135950
3558.1, 0.136249
3560.54, 0.136349
3562.99, 0.136499
3565.44, 0.136599
3567.9, 0.136599
3570.35, 0.136898
3572.81, 0.137397
3575.28, 0.137947
3577.75, 0.138696
3580.22, 0.139694
3582.69, 0.140743
3585.17, 0.141741
3587.65, 0.142690
3590.14, 0.143538
3592.62, 0.144237
3595.11, 0.144687
3597.61, 0.145186
3600.11, 0.145785
3602.61, 0.146384
3605.11, 0.146933
3607.62, 0.147383
3610.14, 0.147882
3612.65, 0.148431
3615.17, 0.148881
3617.69, 0.149380
3620.22, 0.149729
3622.75, 0.150179
3625.28, 0.150678
3627.82, 0.151127
3630.36, 0.151577
3632.9, 0.151976
3635.45, 0.152276
3638.0, 0.152725
3640.56, 0.153124
3643.12, 0.153424
3645.68, 0.153823
3648.24, 0.154223
3650.81, 0.154472
3653.39, 0.154622
3655.96, 0.154822
3658.54, 0.155071
3661.13, 0.155221
3663.71, 0.155371
3666.3, 0.155471
3668.9, 0.155471
3671.5, 0.155521
3674.1, 0.155571
3676.7, 0.155671
3679.31, 0.155870
3681.93, 0.156170
3684.54, 0.156619
3687.17, 0.157068
3689.79, 0.157518
3692.42, 0.158167
3695.05, 0.158816
3697.69, 0.159465
3700.32, 0.160264
3702.97, 0.161013
3705.61, 0.161911
3708.27, 0.163010
3710.92, 0.164108
3713.58, 0.165057
3716.24, 0.165905
3718.91, 0.166704
3721.58, 0.167403
3724.25, 0.168002
3726.93, 0.168502
3729.61, 0.169001
3732.29, 0.169350
3734.98, 0.169800
3737.67, 0.170499
3740.37, 0.171248
3743.07, 0.171996
3745.78, 0.172795
3748.49, 0.173494
3751.2, 0.174093
3753.91, 0.174643
3756.63, 0.175092
3759.36, 0.175741
3762.09, 0.176390
3764.82, 0.176889
3767.55, 0.177389
3770.29, 0.177688
3773.04, 0.177988
3775.78, 0.178437
3778.54, 0.178936
3781.29, 0.179236
3784.05, 0.179585
3786.82, 0.180085
3789.59, 0.180484
3792.36, 0.180883
3795.13, 0.181233
3797.92, 0.181582
3800.7, 0.181932
3803.49, 0.182231
3806.28, 0.182631
3809.08, 0.183080
3811.88, 0.183430
3814.68, 0.183629
3817.49, 0.183829
3820.31, 0.184228
3823.12, 0.184578
3825.94, 0.184877
3828.77, 0.185077
3831.6, 0.185377
3834.43, 0.185676
3837.27, 0.185976
3840.11, 0.186126
3842.96, 0.186275
3845.81, 0.186525
3848.67, 0.186725
3851.53, 0.186924
3854.39, 0.187274
3857.26, 0.187574
3860.13, 0.187773
3863.01, 0.187973
3865.89, 0.188123
3868.77, 0.188272
3871.66, 0.188472
3874.55, 0.188672
3877.45, 0.188822
3880.35, 0.189021
3883.26, 0.189221
3886.17, 0.189371
3889.09, 0.189471
3892.01, 0.189720
3894.93, 0.189870
3897.86, 0.189970
3900.79, 0.190070
3903.73, 0.190220
3906.67, 0.190270
3909.62, 0.190319
3912.57, 0.190519
3915.52, 0.190819
3918.48, 0.190869
3921.45, 0.190869
3924.42, 0.191018
3927.39, 0.191118
3930.37, 0.191068
3933.35, 0.191168
3936.34, 0.191318
3939.33, 0.191518
3942.32, 0.191518
3945.32, 0.191518
3948.33, 0.191717
3951.34, 0.191817
3954.35, 0.191917
3957.37, 0.192017
3960.39, 0.192067
3963.42, 0.192117
3966.45, 0.192217
3969.49, 0.192366
3972.53, 0.192516
3975.58, 0.192616
3978.63, 0.192666
3981.68, 0.192766
3984.75, 0.192866
3987.81, 0.192866
3990.88, 0.192866
3993.95, 0.192866
3997.03, 0.192916
4000.12, 0.193015
4003.21, 0.193115
4006.3, 0.193115
4009.4, 0.193015
4012.5, 0.193015
4015.61, 0.193015
4018.72, 0.192966
4021.84, 0.192916
4024.96, 0.192866
4028.09, 0.192816
4031.22, 0.192966
4034.36, 0.192966
4037.5, 0.192666
4040.65, 0.192616
4043.8, 0.192766
4046.96, 0.192666
4050.12, 0.192516
4053.29, 0.192466
4056.46, 0.192466
4059.64, 0.192366
4062.82, 0.192267
4066.0, 0.192217
4069.19, 0.192067
4072.39, 0.191867
4075.59, 0.191717
4078.8, 0.191618
4082.01, 0.191568
4085.23, 0.191568
4088.45, 0.191518
4091.68, 0.191268
4094.91, 0.191068
4098.15, 0.191018
4101.39, 0.190869
4104.63, 0.190769
4107.89, 0.190769
4111.14, 0.190719
4114.41, 0.190619
4117.67, 0.190419
4120.95, 0.190270
4124.23, 0.190170
4127.51, 0.190120
4130.8, 0.190020
4134.09, 0.189920
4137.39, 0.189820
4140.7, 0.189720
4144.01, 0.189670
4147.32, 0.189521
4150.64, 0.189421
4153.97, 0.189271
4157.3, 0.189221
4160.64, 0.189021
4163.98, 0.188872
4167.33, 0.188872
4170.68, 0.188772
4174.04, 0.188672
4177.4, 0.188572
4180.77, 0.188422
4184.14, 0.188223
4187.52, 0.188073
4190.91, 0.187923
4194.3, 0.187623
4197.69, 0.187274
4201.1, 0.187074
4204.5, 0.186875
4207.92, 0.186525
4211.34, 0.186126
4214.76, 0.185626
4218.19, 0.185177
4221.62, 0.184877
4225.06, 0.184628
4228.51, 0.184278
4231.96, 0.183879
4235.42, 0.183579
4238.88, 0.183380
4242.35, 0.183330
4245.83, 0.183380
4249.31, 0.183380
4252.79, 0.183430
4256.28, 0.183330
4259.78, 0.182930
4263.29, 0.182431
4266.79, 0.182032
4270.31, 0.181632
4273.83, 0.181283
4277.35, 0.181033
4280.89, 0.180833
4284.42, 0.180584
4287.97, 0.180284
4291.52, 0.180134
4295.07, 0.179985
4298.63, 0.179835
4302.2, 0.179585
4305.78, 0.179386
4309.35, 0.179136
4312.94, 0.178936
4316.53, 0.178737
4320.13, 0.178487
4323.73, 0.178287
4327.34, 0.178087
4330.96, 0.177738
4334.58, 0.177438
4338.21, 0.177239
4341.84, 0.176939
4345.48, 0.176640
4349.12, 0.176390
4352.77, 0.176140
4356.43, 0.175841
4360.1, 0.175441
4363.76, 0.175142
4367.44, 0.174842
4371.12, 0.174643
4374.81, 0.174343
4378.51, 0.173994
4382.21, 0.173644
4385.92, 0.173245
4389.63, 0.172995
4393.35, 0.172695
4397.08, 0.172346
4400.81, 0.171996
4404.55, 0.171697
4408.29, 0.171397
4412.04, 0.171048
4415.8, 0.170698
4419.57, 0.170349
4423.34, 0.170049
4427.12, 0.169700
4430.9, 0.169450
4434.69, 0.169101
4438.49, 0.168651
4442.29, 0.168302
4446.1, 0.167853
4449.92, 0.167453
4453.74, 0.167004
4457.57, 0.166455
4461.41, 0.166055
4465.25, 0.165506
4469.1, 0.165007
4472.95, 0.164557
4476.82, 0.164108
4480.69, 0.163559
4484.56, 0.163060
4488.44, 0.162610
4492.33, 0.162211
4496.23, 0.161811
4500.13, 0.161412
4504.04, 0.160963
4507.96, 0.160463
4511.88, 0.160064
4515.81, 0.159615
4519.75, 0.159215
4523.69, 0.158766
4527.65, 0.158317
4531.6, 0.157917
4535.57, 0.157418
4539.54, 0.156969
4543.52, 0.156569
4547.5, 0.156120
4551.5, 0.155521
4555.5, 0.154922
4559.5, 0.154422
4563.52, 0.153973
4567.54, 0.153324
4571.56, 0.152725
4575.6, 0.152126
4579.64, 0.151427
4583.69, 0.150778
4587.75, 0.150079
4591.81, 0.149380
4595.88, 0.148581
4599.96, 0.147832
4604.04, 0.147033
4608.14, 0.146284
4612.24, 0.145585
4616.34, 0.144687
4620.46, 0.143838
4624.58, 0.143039
4628.71, 0.142190
4632.84, 0.141292
4636.99, 0.140443
4641.14, 0.139594
4645.3, 0.138745
4649.47, 0.138047
4653.64, 0.137298
4657.82, 0.136599
4662.01, 0.135950
4666.21, 0.135400
4670.41, 0.135001
4674.62, 0.134552
4678.84, 0.134102
4683.07, 0.133803
4687.3, 0.133553
4691.54, 0.133353
4695.79, 0.133204
4700.05, 0.133104
4704.31, 0.132904
4708.59, 0.132704
4712.87, 0.132654
4717.15, 0.132555
4721.45, 0.132405
4725.76, 0.132255
4730.07, 0.132055
4734.39, 0.131856
4738.72, 0.131656
4743.05, 0.131406
4747.39, 0.131157
4751.75, 0.130957
4756.1, 0.130757
4760.47, 0.130508
4764.85, 0.130158
4769.23, 0.129809
4773.62, 0.129409
4778.02, 0.128960
4782.43, 0.128411
4786.85, 0.127862
4791.27, 0.127362
4795.7, 0.126863
4800.14, 0.126264
4804.59, 0.125665
4809.05, 0.125116
4813.51, 0.124467
4817.99, 0.123718
4822.47, 0.123019
4826.96, 0.122469
4831.46, 0.121870
4835.96, 0.121171
4840.48, 0.120472
4845.0, 0.119823
4849.54, 0.119174
4854.08, 0.118525
4858.63, 0.117926
4863.18, 0.117327
4867.75, 0.116678
4872.33, 0.116079
4876.91, 0.115430
4881.5, 0.114831
4886.1, 0.114132
4890.71, 0.113533
4895.33, 0.112884
4899.96, 0.112284
4904.59, 0.111785
4909.24, 0.111236
4913.89, 0.110687
4918.55, 0.110188
4923.22, 0.109688
4927.9, 0.109239
4932.59, 0.108690
4937.29, 0.108091
4942.0, 0.107541
4946.71, 0.107042
4951.44, 0.106393
4956.17, 0.105694
4960.91, 0.105095
4965.67, 0.104546
4970.43, 0.103847
4975.2, 0.103048
4979.98, 0.102199
4984.76, 0.101500
4989.56, 0.100751
4994.37, 0.0998530
4999.18, 0.0988540
5004.01, 0.0979060
5008.84, 0.0970070
5013.69, 0.0960080
5018.54, 0.0951100
5023.4, 0.0942110
5028.28, 0.0932630
5033.16, 0.0922640
5038.05, 0.0912160
5042.95, 0.0902670
5047.86, 0.0893180
5052.78, 0.0883700
5057.71, 0.0874710
5062.65, 0.0865220
5067.6, 0.0855740
5072.56, 0.0846250
5077.53, 0.0836770
5082.5, 0.0827780
5087.49, 0.0819790
5092.49, 0.0811800
5097.5, 0.0803320
5102.51, 0.0794330
5107.54, 0.0786340
5112.58, 0.0779350
5117.62, 0.0772860
5122.68, 0.0765870
5127.75, 0.0758380
5132.82, 0.0751390
5137.91, 0.0745400
5143.01, 0.0738910
5148.12, 0.0732420
5153.23, 0.0728430
5158.36, 0.0724930
5163.5, 0.0721940
5168.65, 0.0718940
5173.81, 0.0715940
5178.98, 0.0713450
5184.15, 0.0711450
5189.34, 0.0710450
5194.54, 0.0708460
5199.75, 0.0706460
5204.98, 0.0706960
5210.21, 0.0705960
5215.45, 0.0704960
5220.7, 0.0706960
5225.96, 0.0706960
5231.23, 0.0706460
5236.52, 0.0706460
5241.81, 0.0706960
5247.12, 0.0708460
5252.44, 0.0708460
5257.76, 0.0707460
5263.1, 0.0706460
5268.45, 0.0706460
5273.81, 0.0706460
5279.18, 0.0705460
5284.56, 0.0704460
5289.95, 0.0702460
5295.36, 0.0699470
5300.77, 0.0697470
5306.2, 0.0694480
5311.63, 0.0691480
5317.08, 0.0689480
5322.54, 0.0684990
5328.01, 0.0680000
5333.49, 0.0675500
5338.98, 0.0671510
5344.49, 0.0666520
5350.0, 0.0660530
5355.53, 0.0656030
5361.07, 0.0652540
5366.62, 0.0648040
5372.18, 0.0642550
5377.75, 0.0639060
5383.34, 0.0635560
5388.93, 0.0631570
5394.54, 0.0626080
5400.16, 0.0621080
5405.79, 0.0617090
5411.44, 0.0612600
5417.09, 0.0606610
5422.76, 0.0600610
5428.43, 0.0598120
5434.12, 0.0595120
5439.83, 0.0590630
5445.54, 0.0586140
5451.26, 0.0581640
5457.0, 0.0576150
5462.75, 0.0570660
5468.52, 0.0568160
5474.29, 0.0566170
5480.08, 0.0564170
5485.88, 0.0565170
5491.69, 0.0566660
5497.51, 0.0569160
5503.35, 0.0572160
5509.2, 0.0577150
5515.06, 0.0583140
5520.93, 0.0590130
5526.82, 0.0598620
5532.71, 0.0607110
5538.63, 0.0615090
5544.55, 0.0623080
5550.49, 0.0630570
5556.44, 0.0639060
5562.4, 0.0648540
5568.37, 0.0655530
5574.36, 0.0658030
5580.36, 0.0661520
5586.37, 0.0669010
5592.4, 0.0675010
5598.44, 0.0677500
5604.49, 0.0680000
5610.56, 0.0682490
5616.63, 0.0682490
5622.73, 0.0683490
5628.83, 0.0683490
5634.95, 0.0679000
5641.08, 0.0673510
5647.23, 0.0673510
5653.39, 0.0673010
5659.56, 0.0672010
5665.74, 0.0669510
5671.94, 0.0663020
5678.15, 0.0658530
5684.38, 0.0656030
5690.62, 0.0650540
5696.87, 0.0646550
5703.14, 0.0642050
5709.42, 0.0634070
5715.72, 0.0628070
5722.03, 0.0624080
5728.35, 0.0620590
5734.69, 0.0616090
5741.03, 0.0609600
5747.4, 0.0603610
5753.78, 0.0600610
5760.17, 0.0593630
5766.58, 0.0584140
5773.0, 0.0584140
5779.44, 0.0585140
5785.88, 0.0583140
5792.35, 0.0581640
5798.83, 0.0578650
5805.32, 0.0575150
5811.83, 0.0571160
5818.35, 0.0564170
5824.89, 0.0561170
5831.45, 0.0563170
5838.01, 0.0563670
5844.59, 0.0562170
5851.19, 0.0559180
5857.8, 0.0556180
5864.43, 0.0552690
5871.07, 0.0549690
5877.73, 0.0540200
5884.4, 0.0536710
5891.09, 0.0535710
5897.79, 0.0531720
5904.5, 0.0532710
5911.23, 0.0529720
5917.98, 0.0524230
5924.75, 0.0518240
5931.53, 0.0507250
5938.32, 0.0498270
5945.13, 0.0497770
5951.96, 0.0493270
5958.8, 0.0486280
5965.65, 0.0475800
5972.53, 0.0465810
5979.42, 0.0457830
5986.32, 0.0446340
5993.24, 0.0435360
6000.18, 0.0425870
6007.13, 0.0411890
6014.1, 0.0395420
6021.08, 0.0378440
6028.09, 0.0359470
6035.1, 0.0337500
6042.14, 0.0316030
6049.19, 0.0299560
6056.25, 0.0299060
6063.34, 0.0304550
6070.44, 0.0308550
6077.55, 0.0313540
6084.69, 0.0319530
6091.84, 0.0324020
6099.0, 0.0327520
6106.19, 0.0328520
6113.39, 0.0329020
6120.61, 0.0334010
6127.84, 0.0340500
6135.09, 0.0345490
6142.36, 0.0350980
6149.65, 0.0357970
6156.95, 0.0365960
6164.27, 0.0376450
6171.61, 0.0387430
6178.97, 0.0393920
6186.34, 0.0401410
6193.73, 0.0415390
6201.14, 0.0426370
6208.57, 0.0433860
6216.01, 0.0439850
6223.47, 0.0444840
6230.95, 0.0449340
6238.45, 0.0451830
6245.97, 0.0454830
6253.5, 0.0457830
6261.06, 0.0458820
6268.63, 0.0458320
6276.21, 0.0458820
6283.82, 0.0459320
6291.45, 0.0459320
6299.1, 0.0459820
6306.76, 0.0459320
6314.44, 0.0459320
6322.14, 0.0459820
6329.86, 0.0461320
6337.6, 0.0458820
6345.35, 0.0457330
6353.13, 0.0461820
6360.92, 0.0464810
6368.74, 0.0463320
6376.57, 0.0463820
6384.43, 0.0466310
6392.3, 0.0467310
6400.19, 0.0466310
6408.1, 0.0459320
6416.03, 0.0456330
6423.98, 0.0464320
6431.95, 0.0468810
6439.94, 0.0472300
6447.95, 0.0475300
6455.98, 0.0476300
6464.03, 0.0477300
6472.1, 0.0475300
6480.19, 0.0472300
6488.31, 0.0468810
6496.44, 0.0469310
6504.59, 0.0476300
6512.76, 0.0478790
6520.95, 0.0476800
6529.16, 0.0478290
6537.4, 0.0478290
6545.65, 0.0476800
6553.92, 0.0474800
6562.22, 0.0471800
6570.54, 0.0465810
6578.88, 0.0464810
6587.23, 0.0465310
6595.61, 0.0463820
6604.02, 0.0463320
6612.44, 0.0460820
6620.89, 0.0457330
6629.35, 0.0449840
6637.84, 0.0442350
6646.35, 0.0444350
6654.88, 0.0446340
6663.44, 0.0442850
6672.01, 0.0437360
6680.61, 0.0431860
6689.23, 0.0429870
6697.88, 0.0427870
6706.54, 0.0422380
6715.23, 0.0418880
6723.94, 0.0415890
6732.67, 0.0413390
6741.42, 0.0410400
6750.2, 0.0406400
6759.0, 0.0402910
6767.82, 0.0397410
6776.67, 0.0390420
6785.54, 0.0383430
6794.44, 0.0379940
6803.35, 0.0378940
6812.29, 0.0376450
6821.26, 0.0371950
6830.24, 0.0370450
6839.25, 0.0370450
6848.29, 0.0367460
6857.35, 0.0361970
6866.43, 0.0357970
6875.54, 0.0359470
6884.67, 0.0358470
6893.82, 0.0355980
6903.0, 0.0352480
6912.2, 0.0349980
6921.43, 0.0347990
6930.69, 0.0344490
6939.96, 0.0341000
6949.27, 0.0336500
6958.59, 0.0331010
6967.95, 0.0328020
6977.33, 0.0325020
6986.73, 0.0320530
6996.16, 0.0315530
7005.61, 0.0312040
7015.09, 0.0306550
7024.6, 0.0302050
7034.13, 0.0297560
7043.69, 0.0291570
7053.27, 0.0288570
7062.88, 0.0286580
7072.52, 0.0283580
7082.18, 0.0282080
7091.87, 0.0282080
7101.58, 0.0281090
7111.32, 0.0279590
7121.09, 0.0278090
7130.88, 0.0277090
7140.71, 0.0275090
7150.56, 0.0273600
7160.43, 0.0270100
7170.33, 0.0266610
7180.27, 0.0264110
7190.23, 0.0261120
7200.21, 0.0257120
7210.23, 0.0254130
7220.27, 0.0251630
7230.34, 0.0248130
7240.44, 0.0244640
7250.56, 0.0240650
7260.72, 0.0236650
7270.9, 0.0233160
7281.12, 0.0228660
7291.36, 0.0224670
7301.63, 0.0221170
7311.93, 0.0217680
7322.25, 0.0214180
7332.61, 0.0210190
7343.0, 0.0207190
7353.41, 0.0203700
7363.86, 0.0200200
7374.33, 0.0196710
7384.83, 0.0193710
7395.37, 0.0191720
7405.93, 0.0188720
7416.53, 0.0186230
7427.15, 0.0183730
7437.81, 0.0180730
7448.5, 0.0177740
7459.22, 0.0174240
7469.96, 0.0171250
7480.74, 0.0167750
7491.55, 0.0164760
7502.39, 0.0161760
7513.27, 0.0158770
7524.17, 0.0155770
7535.11, 0.0152280
7546.08, 0.0148280
7557.08, 0.0145290
7568.11, 0.0141790
7579.17, 0.0138800
7590.27, 0.0135300
7601.4, 0.0131810
7612.56, 0.0128810
7623.76, 0.0125810
7634.98, 0.0123320
7646.24, 0.0120820
7657.54, 0.0118330
7668.87, 0.0114830
7680.23, 0.0110840
7691.62, 0.0107840
7703.05, 0.0105840
7714.51, 0.0103350
7726.01, 0.00998500
7737.54, 0.00968600
7749.11, 0.00928600
7760.71, 0.00898700
7772.35, 0.00868700
7784.02, 0.00843800
7795.72, 0.00813800
7807.46, 0.00793800
7819.23, 0.00763900
7831.04, 0.00738900
7842.89, 0.00713900
7854.77, 0.00704000
7866.69, 0.00689000
7878.65, 0.00654000
7890.64, 0.00624100
7902.67, 0.00609100
7914.74, 0.00594100
7926.84, 0.00574200
7938.98, 0.00554200
7951.16, 0.00539200
7963.37, 0.00524200
7975.62, 0.00504300
7987.91, 0.00499300
8000.24, 0.00494300
8012.6, 0.00484300
8025.01, 0.00474300
8037.45, 0.00459300
8049.93, 0.00444300
8062.45, 0.00439400
8075.01, 0.00439400
8087.61, 0.00439400
8100.24, 0.00429400
8112.91, 0.00419400
8125.63, 0.00424400
8138.39, 0.00424400
8151.18, 0.00429400
8164.02, 0.00434400
8176.9, 0.00439400
8189.81, 0.00439400
8202.77, 0.00429400
8215.77, 0.00434400
8228.82, 0.00449300
8241.9, 0.00444300
8255.02, 0.00444300
8268.19, 0.00459300
8281.39, 0.00474300
8294.65, 0.00484300
8307.94, 0.00504300
8321.28, 0.00524200
8334.66, 0.00559200
8348.08, 0.00584100
8361.54, 0.00614100
8375.05, 0.00654000
8388.6, 0.00713900
8402.2, 0.00788800
8415.84, 0.00873700
8429.52, 0.00973600
8443.25, 0.0108840
8457.02, 0.0122820
8470.84, 0.0138800
8484.7, 0.0155270
8498.61, 0.0174240
8512.57, 0.0195210
8526.57, 0.0218680
8540.62, 0.0242640
8554.71, 0.0268600
8568.85, 0.0296560
8583.04, 0.0326020
8597.27, 0.0357470
8611.55, 0.0389930
8625.88, 0.0426370
8640.26, 0.0465810
8654.68, 0.0505750
8669.16, 0.0547690
8683.68, 0.0588130
8698.25, 0.0628070
8712.87, 0.0667520
8727.53, 0.0703460
8742.25, 0.0734920
8757.02, 0.0759880
8771.83, 0.0777850
8786.7, 0.0786840
8801.62, 0.0786340
8816.59, 0.0776360
8831.61, 0.0757380
8846.68, 0.0727930
8861.8, 0.0689980
8876.97, 0.0646550
8892.2, 0.0600120
8907.48, 0.0553680
8922.81, 0.0509250
8938.2, 0.0471800
8953.63, 0.0446340
8969.13, 0.0435860
8984.67, 0.0444350
9000.27, 0.0475800
9015.92, 0.0526220
9031.63, 0.0587630
9047.39, 0.0652040
9063.21, 0.0716440
9079.08, 0.0778850
9095.01, 0.0837270
9111.0, 0.0891190
9127.04, 0.0941110
9143.13, 0.0985550
9159.28, 0.102299
9175.49, 0.105594
9191.76, 0.108690
9208.09, 0.111386
9224.47, 0.113483
9240.92, 0.115080
9257.42, 0.116029
9273.98, 0.116578
9290.6, 0.116778
9307.28, 0.117077
9324.02, 0.117127
9340.82, 0.117028
9357.68, 0.116828
9374.6, 0.116578
9391.58, 0.116378
9408.62, 0.116528
9425.73, 0.116528
9442.9, 0.116528
9460.13, 0.116378
9477.42, 0.116079
9494.78, 0.115330
9512.2, 0.114082
9529.69, 0.112484
9547.24, 0.110287
9564.86, 0.107591
9582.54, 0.104546
9600.28, 0.101401
9618.1, 0.0978560
9635.97, 0.0942110
9653.92, 0.0905170
9671.93, 0.0869220
9690.01, 0.0833770
9708.16, 0.0801320
9726.37, 0.0771860
9744.65, 0.0747400
9763.0, 0.0729920
9781.43, 0.0718940
9799.92, 0.0713450
9818.48, 0.0713950
9837.1, 0.0715450
9855.8, 0.0716440
9874.58, 0.0715940
9893.42, 0.0709950
9912.34, 0.0699970
9931.33, 0.0688980
9950.39, 0.0673510
9969.52, 0.0654040
9988.74, 0.0634560
10008.0, 0.0616590
10027.4, 0.0596620
10046.8, 0.0576150
10066.3, 0.0558680
10085.9, 0.0541700
10105.6, 0.0526720
10125.3, 0.0510750
10145.1, 0.0494270
10165.0, 0.0479290
10185.0, 0.0463820
10205.0, 0.0449340
10225.2, 0.0435860
10245.4, 0.0424370
10265.7, 0.0412390
10286.0, 0.0397910
10306.5, 0.0382940
10327.0, 0.0368960
10347.6, 0.0353480
10368.3, 0.0338000
10389.1, 0.0323520
10409.9, 0.0309540
10430.9, 0.0297060
10451.9, 0.0285580
10473.0, 0.0272100
10494.2, 0.0258620
10515.5, 0.0246640
10536.9, 0.0238150
10558.4, 0.0230160
10579.9, 0.0223670
10601.5, 0.0220670
10623.3, 0.0218680
10645.1, 0.0215680
10667.0, 0.0215680
10689.0, 0.0217680
10711.1, 0.0218180
10733.2, 0.0219680
10755.5, 0.0224670
10777.9, 0.0233660
10800.3, 0.0244640
10822.9, 0.0262110
10845.5, 0.0283580
10868.2, 0.0307550
10891.1, 0.0336500
10914.0, 0.0367960
10937.0, 0.0395420
10960.2, 0.0413890
10983.4, 0.0425870
11006.7, 0.0429370
11030.1, 0.0426870
11053.6, 0.0423880
11077.3, 0.0418380
11101.0, 0.0411890
11124.8, 0.0405400
11148.7, 0.0397910
11172.7, 0.0390420
11196.9, 0.0382940
11221.1, 0.0378940
11245.4, 0.0374450
11269.9, 0.0370950
11294.4, 0.0366960
11319.1, 0.0363460
11343.9, 0.0359970
11368.8, 0.0355480
11393.7, 0.0354480
11418.8, 0.0354480
11444.0, 0.0351980
11469.4, 0.0349980
11494.8, 0.0348490
11520.3, 0.0345990
11546.0, 0.0344490
11571.8, 0.0344990
11597.7, 0.0343490
11623.7, 0.0342500
11649.8, 0.0341000
11676.0, 0.0337500
11702.4, 0.0336000
11728.9, 0.0334510
11755.5, 0.0332510
11782.2, 0.0330510
11809.0, 0.0327520
11836.0, 0.0323020
11863.0, 0.0320030
11890.3, 0.0317030
11917.6, 0.0312540
11945.0, 0.0310040
11972.6, 0.0307050
12000.4, 0.0304050
12028.2, 0.0299060
12056.2, 0.0293070
12084.3, 0.0285080
12112.5, 0.0277590
12140.9, 0.0272600
12169.4, 0.0266110
12198.0, 0.0256120
12226.8, 0.0246640
12255.7, 0.0239150
12284.7, 0.0231160
12313.9, 0.0222170
12343.2, 0.0215180
12372.7, 0.0207690
12402.3, 0.0200200
12432.0, 0.0196710
12461.9, 0.0193710
12491.9, 0.0191220
12522.1, 0.0187720
12552.4, 0.0183730
12582.9, 0.0182230
12613.5, 0.0181230
12644.3, 0.0182730
12675.2, 0.0183230
12706.3, 0.0181730
12737.5, 0.0180730
12768.9, 0.0178740
12800.4, 0.0176240
12832.1, 0.0171750
12863.9, 0.0167750
12895.9, 0.0161760
12928.1, 0.0153770
12960.4, 0.0147780
12992.9, 0.0144290
13025.5, 0.0140790
13058.3, 0.0135800
13091.3, 0.0130810
13124.4, 0.0127310
13157.8, 0.0126310
13191.2, 0.0126810
13224.9, 0.0128310
13258.7, 0.0128310
13292.7, 0.0128810
13326.9, 0.0131810
13361.2, 0.0135800
13395.7, 0.0137300
13430.4, 0.0137300
13465.3, 0.0135300
13500.4, 0.0133300
13535.7, 0.0133800
13571.1, 0.0132300
13606.7, 0.0125810
13642.5, 0.0119320
13678.5, 0.0113830
13714.7, 0.0106340
13751.1, 0.0102350
13787.6, 0.00998500
13824.4, 0.00913700
13861.4, 0.00818800
13898.5, 0.00738900
13935.9, 0.00664000
13973.5, 0.00614100
14011.2, 0.00599100
14049.2, 0.00564200
14087.4, 0.00549200
14125.8, 0.00619100
14164.3, 0.00718900
14203.2, 0.00818800
14242.2, 0.00903700
14281.4, 0.00988500
14320.9, 0.0108840
14360.5, 0.0124820
14400.4, 0.0138800
14440.5, 0.0147280
14480.9, 0.0157270
14521.4, 0.0163260
14562.2, 0.0166250
14603.3, 0.0168250
14644.5, 0.0170750
14686.0, 0.0172250
14727.7, 0.0171250
14769.7, 0.0170750
14811.9, 0.0167750
14854.3, 0.0165760
14897.0, 0.0164260
14939.9, 0.0158270
14983.1, 0.0159760
15026.5, 0.0162760
15070.2, 0.0160760
15114.2, 0.0156270
15158.3, 0.0155270
15202.8, 0.0153270
15247.5, 0.0155270
15292.5, 0.0159270
15337.7, 0.0162260
15383.2, 0.0164260
15429.0, 0.0168750
15475.1, 0.0173240
15521.4, 0.0177740
15568.0, 0.0182730
15614.9, 0.0184230
15662.1, 0.0187220
15709.6, 0.0196210
15757.3, 0.0207190
15805.4, 0.0218680
15853.7, 0.0229660
15902.3, 0.0247140
15951.2, 0.0271600
16000.5, 0.0296060
16050.0, 0.0320530
16099.8, 0.0347490
16150.0, 0.0380440
16200.5, 0.0414890
16251.3, 0.0445340
16302.4, 0.0480290
16353.8, 0.0509750
16405.5, 0.0535710
16457.6, 0.0562670
16510.0, 0.0583140
16562.8, 0.0593630
16615.9, 0.0609100
16669.3, 0.0625080
16723.1, 0.0635560
16777.2, 0.0655530
16831.7, 0.0679500
16886.5, 0.0700970
16941.7, 0.0714950
16997.2, 0.0729420
17053.1, 0.0745400
17109.4, 0.0758880
17166.1, 0.0770860
17223.1, 0.0786340
17280.5, 0.0803820
17338.3, 0.0817790
17396.5, 0.0829280
17455.1, 0.0842760
17514.0, 0.0856240
17573.4, 0.0869220
17633.2, 0.0882200
17693.4, 0.0890690
17754.0, 0.0898680
17815.0, 0.0908660
17876.4, 0.0912650
17938.3, 0.0914650
18000.5, 0.0920640
18063.3, 0.0931130
18126.4, 0.0944610
18190.0, 0.0955590
18254.1, 0.0968070
18318.6, 0.0979560
18383.5, 0.0993540
18449.0, 0.100152
18514.9, 0.100003
18581.2, 0.0991040
18648.0, 0.0985050
18715.4, 0.0982050
18783.2, 0.0960580
18851.5, 0.0936120
18920.3, 0.0914650
18989.6, 0.0882200
19059.4, 0.0850250
19129.7, 0.0824290
19200.6, 0.0796830
19272.0, 0.0760880
19343.9, 0.0723430
19416.3, 0.0691480
19489.3, 0.0663020
19562.8, 0.0623080
19637.0, 0.0591130
19711.6, 0.0564170
19786.8, 0.0527220
19862.6, 0.0507250
19939.0, 0.0496770
20016.0, 0.0476300
20093.6, 0.0457830
20171.8, 0.0438350
20250.6, 0.0433360
20330.0, 0.0424870
20410.0, 0.0421880
20490.7, 0.0441350
20572.0, 0.0487780
20654.0, 0.0547690
20736.6, 0.0626080
20819.9, 0.0713950
20903.8, 0.0800320
20988.5, 0.0881700
21073.8, 0.0950600
21159.8, 0.101101
21246.5, 0.104346
21334.0, 0.105694
21422.1, 0.105345
21511.0, 0.101800
21600.7, 0.0978060
21691.0, 0.0923640
21782.1, 0.0881700
21874.0, 0.0828780
21966.7, 0.0779850
22060.2, 0.0722960
22154.5, 0.0682120
22249.6, 0.0662680
22345.5, 0.0647530
22539.8, 0.0634030
22638.2, 0.0649510
22737.5, 0.0674210
22837.7, 0.0697270
22938.7, 0.0724600
23040.7, 0.0753920
23143.5, 0.0766100
23352.1, 0.0770710
23457.7, 0.0760170
23564.4, 0.0752600
23672.0, 0.0745020
23780.5, 0.0739100
23890.1, 0.0735470
24000.7, 0.0730200
24225.0, 0.0706490
24338.7, 0.0700560
24453.5, 0.0696610
24569.4, 0.0691010
24686.4, 0.0679150
24804.5, 0.0669600
24923.8, 0.0658070
25165.8, 0.0622830
25288.6, 0.0603070
25412.5, 0.0595820
25537.7, 0.0584950
25664.1, 0.0566840
25791.8, 0.0552020
25920.8, 0.0535550
26182.6, 0.0513480
26315.5, 0.0502280
26449.8, 0.0504590
26585.4, 0.0490750
26722.5, 0.0480210
26860.9, 0.0480210
27000.8, 0.0485810
27285.0, 0.0494050
27429.4, 0.0499650
27575.3, 0.0497670
27722.7, 0.0489110
27871.8, 0.0481530
28022.4, 0.0491740
28174.7, 0.0509530
28484.4, 0.0581000
28641.7, 0.0613610
28800.9, 0.0634360
28961.8, 0.0642260
29124.5, 0.0642920
29289.0, 0.0643580
29455.4, 0.0638310
29794.0, 0.0642260
29966.3, 0.0646210
30140.5, 0.0634030
30316.7, 0.0626450
30495.1, 0.0627440
30675.5, 0.0626450
30858.1, 0.0626120
31229.8, 0.0615580
31419.1, 0.0606690
31610.7, 0.0596480
31804.6, 0.0588580
32000.9, 0.0578040
32199.7, 0.0572440
32400.9, 0.0569800
32811.1, 0.0553000
33020.1, 0.0547400
33231.8, 0.0534230
33446.2, 0.0519410
33663.4, 0.0504920
33883.4, 0.0501620
34106.3, 0.0499980
34561.0, 0.0476260
34792.9, 0.0471650
35028.0, 0.0473960
35266.3, 0.0481860
35507.8, 0.0505580
35752.7, 0.0543780
36001.0, 0.0578370
36508.1, 0.0622830
36767.0, 0.0628760
37029.7, 0.0645230
37296.1, 0.0658400
37566.3, 0.0646540
37840.5, 0.0634690
38118.8, 0.0636990
38687.8, 0.0621840
38978.6, 0.0614600
39273.9, 0.0609650
39573.7, 0.0602740
39878.1, 0.0595490
40187.3, 0.0593190
40501.2, 0.0594500
41144.0, 0.0571450
41473.2, 0.0559260
41807.6, 0.0570790
42147.5, 0.0580670
42493.0, 0.0578690
42844.2, 0.0567170
43201.2, 0.0559920
43933.5, 0.0558270
44309.0, 0.0554980
44691.0, 0.0557290
45079.6, 0.0557290
45475.0, 0.0545100
45877.5, 0.0519740
46287.1, 0.0514800
47128.7, 0.0519410
47561.1, 0.0508870
48001.5, 0.0476260
48450.1, 0.0457490
48907.2, 0.0449580
49373.0, 0.0447940
49847.7, 0.0462430
50825.0, 0.0488450
51328.2, 0.0499320
51841.5, 0.0519410
52365.1, 0.0526330
52899.4, 0.0526000
53444.8, 0.0529290
54001.5, 0.0531270
55150.6, 0.0519080
55743.6, 0.0518090
56349.5, 0.0508870
56968.7, 0.0505580
57601.7, 0.0512490
58248.9, 0.0517760
58910.9, 0.0511500
60281.0, 0.0520730
60990.2, 0.0515790
61716.3, 0.0522040
62459.8, 0.0519410
63221.6, 0.0530280
64002.1, 0.0509200
64802.1, 0.0486800
66463.4, 0.0513150
67326.6, 0.0508540
68212.4, 0.0483510
69121.9, 0.0482190
70056.0, 0.0501620
71015.7, 0.0500960
72002.0, 0.0481860
74059.4, 0.0480870
75132.7, 0.0457820
76237.6, 0.0457160
77375.5, 0.0487460
78547.9, 0.0511170
79756.3, 0.0497670
81002.5, 0.0485810
83615.7, 0.0490750
84986.5, 0.0503930
86402.9, 0.0503930
87867.4, 0.0508540
89382.4, 0.0509200
90950.5, 0.0498000
92574.6, 0.0487460
96002.7, 0.0511500
97814.1, 0.0511170
99695.1, 0.0495690
101650.0, 0.0497670
103683.0, 0.0514140
105799.0, 0.0506560
108003.0, 0.0508540
112699.0, 0.0478570
115204.0, 0.0509860
117822.0, 0.0504920
120562.0, 0.0471980
123433.0, 0.0487790
126443.0, 0.0472310
129604.0, 0.0522040
136424.0, 0.0598460
140111.0, 0.0539170
144003.0, 0.0546090
148118.0, 0.0575400
152474.0, 0.0574410
157095.0, 0.0518750
162004.0, 0.0517760
172805.0, 0.0514140
178764.0, 0.0462100
185148.0, 0.0471980
192005.0, 0.00220700
199390.0, 0.0505580
207366.0, 0.0348470
216006.0, 0.0452220
